Filename:	D:\TGAdata\„∆√ŒœÈ\20150506\10.pdid

Temperature (°„C)	Heat Flow Endo Up (mW)
10.68	2.2955
10.68	2.2974
10.68	2.2844
10.68	2.2589
10.68	2.2244
10.68	2.1844
10.68	2.1418
10.68	2.0991
10.69	2.0574
10.70	2.0175
10.70	1.9800
10.70	1.9451
10.70	1.9128
10.71	1.8831
10.72	1.8556
10.73	1.8302
10.73	1.8065
10.74	1.7842
10.75	1.7629
10.77	1.7427
10.78	1.7233
10.79	1.7040
10.80	1.6854
10.81	1.6673
10.83	1.6491
10.83	1.6311
10.85	1.6132
10.86	1.5957
10.87	1.5783
10.88	1.5613
10.90	1.5452
10.91	1.5294
10.93	1.5139
10.94	1.4990
10.95	1.4849
10.97	1.4713
10.99	1.4585
11.00	1.4466
11.01	1.4357
11.03	1.4259
11.05	1.4169
11.06	1.4090
11.08	1.4024
11.09	1.3968
11.10	1.3924
11.12	1.3890
11.14	1.3870
11.15	1.3862
11.17	1.3869
11.18	1.3886
11.20	1.3915
11.21	1.3954
11.23	1.4006
11.24	1.4069
11.26	1.4145
11.27	1.4231
11.29	1.4327
11.32	1.4432
11.33	1.4546
11.34	1.4672
11.36	1.4805
11.37	1.4947
11.39	1.5095
11.40	1.5252
11.42	1.5417
11.43	1.5588
11.45	1.5765
11.47	1.5948
11.48	1.6136
11.50	1.6330
11.52	1.6528
11.53	1.6734
11.55	1.6945
11.57	1.7159
11.58	1.7375
11.60	1.7593
11.61	1.7815
11.63	1.8037
11.65	1.8262
11.66	1.8488
11.68	1.8713
11.69	1.8940
11.71	1.9168
11.73	1.9396
11.74	1.9624
11.76	1.9851
11.78	2.0078
11.79	2.0306
11.81	2.0532
11.82	2.0753
11.84	2.0978
11.86	2.1201
11.88	2.1424
11.89	2.1644
11.90	2.1861
11.92	2.2078
11.94	2.2292
11.95	2.2506
11.98	2.2718
11.99	2.2926
12.01	2.3132
12.03	2.3337
12.04	2.3539
12.06	2.3738
12.08	2.3935
12.08	2.4129
12.10	2.4320
12.12	2.4508
12.14	2.4693
12.16	2.4881
12.17	2.5060
12.19	2.5241
12.21	2.5420
12.22	2.5594
12.24	2.5767
12.25	2.5940
12.27	2.6108
12.28	2.6273
12.30	2.6435
12.32	2.6593
12.34	2.6749
12.35	2.6899
12.37	2.7049
12.39	2.7197
12.40	2.7341
12.42	2.7483
12.43	2.7623
12.45	2.7759
12.48	2.7893
12.49	2.8026
12.50	2.8156
12.52	2.8285
12.54	2.8410
12.55	2.8532
12.57	2.8651
12.58	2.8766
12.60	2.8881
12.61	2.8994
12.63	2.9104
12.65	2.9216
12.67	2.9321
12.68	2.9427
12.70	2.9530
12.72	2.9630
12.73	2.9730
12.75	2.9825
12.77	2.9917
12.78	3.0009
12.80	3.0098
12.82	3.0188
12.83	3.0275
12.85	3.0359
12.87	3.0441
12.88	3.0522
12.90	3.0603
12.91	3.0683
12.93	3.0762
12.95	3.0838
12.96	3.0913
12.98	3.0987
13.00	3.1059
13.01	3.1127
13.03	3.1195
13.05	3.1264
13.07	3.1327
13.08	3.1391
13.10	3.1452
13.12	3.1514
13.13	3.1573
13.15	3.1630
13.16	3.1684
13.18	3.1740
13.20	3.1795
13.22	3.1849
13.23	3.1897
13.25	3.1947
13.26	3.1994
13.28	3.2043
13.30	3.2090
13.31	3.2137
13.33	3.2184
13.35	3.2228
13.36	3.2271
13.38	3.2314
13.40	3.2356
13.41	3.2395
13.43	3.2434
13.45	3.2472
13.47	3.2510
13.48	3.2548
13.50	3.2583
13.51	3.2618
13.53	3.2651
13.54	3.2684
13.56	3.2718
13.58	3.2752
13.60	3.2786
13.61	3.2819
13.63	3.2854
13.65	3.2885
13.66	3.2915
13.68	3.2947
13.70	3.2977
13.71	3.3007
13.73	3.3034
13.74	3.3061
13.76	3.3086
13.78	3.3112
13.80	3.3138
13.81	3.3162
13.83	3.3186
13.84	3.3208
13.86	3.3231
13.88	3.3252
13.89	3.3272
13.91	3.3293
13.93	3.3313
13.94	3.3334
13.95	3.3355
13.97	3.3376
14.00	3.3396
14.01	3.3415
14.03	3.3434
14.05	3.3453
14.06	3.3470
14.08	3.3487
14.09	3.3503
14.10	3.3519
14.12	3.3535
14.14	3.3551
14.16	3.3566
14.18	3.3582
14.19	3.3596
14.21	3.3611
14.23	3.3626
14.24	3.3640
14.25	3.3656
14.28	3.3673
14.29	3.3688
14.31	3.3706
14.32	3.3722
14.34	3.3737
14.36	3.3751
14.37	3.3764
14.39	3.3778
14.40	3.3791
14.43	3.3803
14.44	3.3815
14.46	3.3825
14.48	3.3836
14.49	3.3848
14.51	3.3858
14.52	3.3869
14.54	3.3878
14.55	3.3888
14.57	3.3899
14.59	3.3907
14.61	3.3918
14.62	3.3928
14.64	3.3939
14.65	3.3951
14.67	3.3960
14.68	3.3970
14.70	3.3977
14.72	3.3986
14.74	3.3994
14.75	3.4002
14.78	3.4011
14.79	3.4019
14.81	3.4028
14.82	3.4037
14.84	3.4045
14.85	3.4055
14.87	3.4063
14.89	3.4069
14.91	3.4076
14.93	3.4083
14.94	3.4092
14.95	3.4103
14.97	3.4113
14.99	3.4124
15.00	3.4134
15.03	3.4144
15.04	3.4152
15.06	3.4161
15.07	3.4168
15.09	3.4174
15.11	3.4180
15.13	3.4187
15.14	3.4194
15.16	3.4201
15.17	3.4207
15.19	3.4214
15.20	3.4219
15.22	3.4225
15.24	3.4231
15.25	3.4238
15.27	3.4245
15.28	3.4250
15.30	3.4258
15.32	3.4264
15.34	3.4271
15.35	3.4277
15.37	3.4282
15.38	3.4287
15.40	3.4292
15.42	3.4300
15.44	3.4306
15.45	3.4312
15.47	3.4318
15.49	3.4325
15.50	3.4329
15.52	3.4335
15.53	3.4339
15.55	3.4344
15.57	3.4349
15.58	3.4354
15.60	3.4360
15.62	3.4368
15.63	3.4377
15.65	3.4385
15.67	3.4393
15.68	3.4401
15.70	3.4408
15.71	3.4414
15.73	3.4420
15.75	3.4425
15.77	3.4431
15.78	3.4437
15.80	3.4441
15.82	3.4447
15.83	3.4453
15.85	3.4458
15.87	3.4464
15.88	3.4468
15.89	3.4474
15.92	3.4480
15.93	3.4486
15.95	3.4494
15.97	3.4499
15.98	3.4504
16.00	3.4509
16.02	3.4515
16.03	3.4520
16.05	3.4525
16.07	3.4529
16.09	3.4534
16.10	3.4539
16.12	3.4545
16.13	3.4551
16.15	3.4557
16.17	3.4562
16.18	3.4568
16.20	3.4574
16.22	3.4579
16.23	3.4584
16.25	3.4589
16.26	3.4592
16.28	3.4601
16.30	3.4609
16.31	3.4618
16.33	3.4627
16.34	3.4633
16.36	3.4639
16.38	3.4644
16.40	3.4649
16.41	3.4656
16.43	3.4662
16.45	3.4668
16.47	3.4674
16.48	3.4680
16.50	3.4685
16.51	3.4691
16.53	3.4696
16.55	3.4700
16.56	3.4707
16.58	3.4711
16.59	3.4715
16.61	3.4722
16.63	3.4726
16.65	3.4733
16.67	3.4738
16.68	3.4744
16.70	3.4751
16.71	3.4756
16.73	3.4759
16.75	3.4763
16.76	3.4767
16.78	3.4772
16.80	3.4777
16.81	3.4782
16.83	3.4787
16.84	3.4790
16.86	3.4795
16.88	3.4798
16.89	3.4802
16.91	3.4806
16.93	3.4808
16.95	3.4814
16.96	3.4819
16.98	3.4825
17.00	3.4832
17.01	3.4839
17.03	3.4845
17.05	3.4851
17.06	3.4856
17.07	3.4862
17.09	3.4867
17.11	3.4872
17.13	3.4878
17.14	3.4882
17.16	3.4888
17.18	3.4890
17.20	3.4895
17.21	3.4900
17.23	3.4903
17.25	3.4908
17.26	3.4912
17.28	3.4917
17.30	3.4922
17.31	3.4926
17.32	3.4930
17.34	3.4935
17.36	3.4939
17.38	3.4942
17.40	3.4947
17.41	3.4952
17.43	3.4954
17.45	3.4959
17.46	3.4964
17.48	3.4969
17.49	3.4975
17.51	3.4982
17.53	3.4987
17.54	3.4995
17.56	3.5002
17.58	3.5007
17.59	3.5013
17.61	3.5020
17.63	3.5026
17.64	3.5031
17.66	3.5038
17.68	3.5044
17.70	3.5050
17.71	3.5055
17.73	3.5059
17.75	3.5065
17.76	3.5068
17.78	3.5074
17.80	3.5079
17.81	3.5084
17.83	3.5089
17.84	3.5095
17.85	3.5102
17.88	3.5108
17.89	3.5112
17.91	3.5118
17.92	3.5125
17.94	3.5132
17.96	3.5138
17.98	3.5146
17.99	3.5153
18.00	3.5160
18.02	3.5166
18.04	3.5170
18.05	3.5175
18.07	3.5179
18.09	3.5183
18.11	3.5188
18.13	3.5191
18.14	3.5197
18.16	3.5202
18.17	3.5208
18.19	3.5212
18.21	3.5216
18.23	3.5222
18.24	3.5229
18.25	3.5237
18.27	3.5243
18.29	3.5246
18.31	3.5252
18.32	3.5257
18.34	3.5264
18.36	3.5267
18.38	3.5272
18.39	3.5276
18.40	3.5278
18.42	3.5282
18.44	3.5287
18.46	3.5290
18.48	3.5295
18.49	3.5299
18.50	3.5301
18.52	3.5305
18.54	3.5309
18.55	3.5312
18.57	3.5316
18.59	3.5322
18.60	3.5327
18.62	3.5335
18.64	3.5341
18.65	3.5348
18.67	3.5354
18.69	3.5359
18.70	3.5364
18.72	3.5368
18.73	3.5372
18.75	3.5377
18.77	3.5381
18.78	3.5386
18.80	3.5389
18.82	3.5394
18.83	3.5399
18.85	3.5403
18.86	3.5406
18.88	3.5410
18.90	3.5412
18.92	3.5417
18.93	3.5422
18.95	3.5428
18.97	3.5435
18.98	3.5440
19.00	3.5445
19.02	3.5451
19.03	3.5457
19.05	3.5460
19.07	3.5465
19.08	3.5470
19.10	3.5475
19.12	3.5478
19.13	3.5483
19.15	3.5486
19.16	3.5490
19.18	3.5493
19.20	3.5497
19.22	3.5499
19.23	3.5502
19.25	3.5505
19.27	3.5508
19.28	3.5514
19.30	3.5516
19.32	3.5522
19.34	3.5528
19.35	3.5534
19.36	3.5540
19.38	3.5546
19.40	3.5550
19.42	3.5554
19.43	3.5560
19.45	3.5564
19.47	3.5569
19.48	3.5572
19.50	3.5576
19.51	3.5579
19.53	3.5583
19.55	3.5584
19.56	3.5586
19.58	3.5591
19.59	3.5592
19.61	3.5596
19.63	3.5601
19.65	3.5603
19.66	3.5607
19.68	3.5613
19.70	3.5618
19.71	3.5623
19.73	3.5629
19.75	3.5634
19.77	3.5640
19.78	3.5646
19.80	3.5650
19.81	3.5656
19.83	3.5661
19.84	3.5663
19.86	3.5668
19.88	3.5672
19.90	3.5674
19.91	3.5681
19.93	3.5684
19.95	3.5688
19.96	3.5693
19.98	3.5696
19.99	3.5699
20.01	3.5701
20.03	3.5705
20.04	3.5711
20.06	3.5715
20.08	3.5721
20.09	3.5727
20.11	3.5732
20.13	3.5737
20.15	3.5743
20.16	3.5747
20.17	3.5752
20.19	3.5755
20.21	3.5759
20.22	3.5764
20.24	3.5766
20.26	3.5772
20.28	3.5778
20.29	3.5781
20.31	3.5785
20.32	3.5789
20.34	3.5794
20.36	3.5800
20.38	3.5802
20.39	3.5805
20.41	3.5810
20.43	3.5817
20.44	3.5824
20.46	3.5830
20.47	3.5834
20.49	3.5838
20.50	3.5842
20.52	3.5846
20.54	3.5851
20.55	3.5854
20.57	3.5858
20.59	3.5862
20.60	3.5868
20.63	3.5872
20.64	3.5874
20.66	3.5878
20.68	3.5884
20.69	3.5886
20.70	3.5889
20.72	3.5891
20.74	3.5895
20.75	3.5899
20.77	3.5903
20.79	3.5907
20.80	3.5911
20.82	3.5919
20.83	3.5924
20.85	3.5929
20.88	3.5933
20.89	3.5938
20.90	3.5943
20.92	3.5947
20.94	3.5951
20.95	3.5955
20.97	3.5958
20.98	3.5962
21.00	3.5968
21.02	3.5970
21.03	3.5973
21.05	3.5976
21.07	3.5980
21.08	3.5983
21.10	3.5987
21.12	3.5992
21.14	3.5996
21.15	3.6004
21.17	3.6010
21.19	3.6016
21.20	3.6023
21.22	3.6030
21.24	3.6032
21.25	3.6036
21.27	3.6041
21.28	3.6044
21.30	3.6049
21.32	3.6053
21.33	3.6056
21.35	3.6060
21.37	3.6063
21.38	3.6069
21.40	3.6072
21.42	3.6076
21.43	3.6080
21.45	3.6084
21.47	3.6088
21.48	3.6092
21.50	3.6099
21.52	3.6106
21.53	3.6112
21.55	3.6119
21.57	3.6124
21.59	3.6130
21.59	3.6136
21.61	3.6141
21.63	3.6143
21.65	3.6148
21.66	3.6152
21.68	3.6155
21.70	3.6161
21.71	3.6162
21.73	3.6169
21.75	3.6174
21.76	3.6179
21.78	3.6184
21.80	3.6189
21.82	3.6194
21.83	3.6197
21.84	3.6200
21.86	3.6203
21.88	3.6209
21.90	3.6216
21.91	3.6223
21.93	3.6231
21.95	3.6238
21.96	3.6244
21.98	3.6249
22.00	3.6255
22.01	3.6259
22.03	3.6263
22.04	3.6267
22.06	3.6272
22.08	3.6275
22.09	3.6279
22.11	3.6283
22.12	3.6286
22.14	3.6290
22.16	3.6293
22.18	3.6295
22.20	3.6297
22.21	3.6302
22.23	3.6306
22.25	3.6312
22.26	3.6319
22.28	3.6325
22.29	3.6331
22.30	3.6338
22.32	3.6343
22.34	3.6349
22.37	3.6356
22.38	3.6359
22.39	3.6365
22.40	3.6370
22.42	3.6372
22.44	3.6375
22.46	3.6379
22.47	3.6383
22.48	3.6386
22.50	3.6392
22.52	3.6396
22.54	3.6401
22.56	3.6406
22.57	3.6407
22.59	3.6414
22.60	3.6422
22.62	3.6426
22.64	3.6434
22.66	3.6442
22.68	3.6447
22.69	3.6452
22.70	3.6459
22.72	3.6465
22.74	3.6471
22.75	3.6478
22.77	3.6480
22.79	3.6484
22.81	3.6489
22.82	3.6492
22.84	3.6495
22.85	3.6500
22.87	3.6504
22.88	3.6508
22.90	3.6513
22.92	3.6517
22.94	3.6523
22.95	3.6530
22.97	3.6534
22.99	3.6542
23.00	3.6549
23.02	3.6554
23.03	3.6561
23.05	3.6567
23.07	3.6572
23.09	3.6577
23.10	3.6582
23.12	3.6586
23.14	3.6591
23.15	3.6596
23.17	3.6599
23.19	3.6604
23.20	3.6607
23.22	3.6610
23.23	3.6613
23.25	3.6620
23.27	3.6624
23.29	3.6628
23.30	3.6633
23.32	3.6640
23.33	3.6644
23.35	3.6649
23.37	3.6657
23.39	3.6663
23.40	3.6669
23.42	3.6674
23.43	3.6678
23.45	3.6683
23.47	3.6686
23.48	3.6690
23.50	3.6693
23.52	3.6698
23.53	3.6702
23.55	3.6705
23.56	3.6708
23.58	3.6713
23.59	3.6717
23.62	3.6720
23.63	3.6725
23.65	3.6728
23.66	3.6733
23.68	3.6739
23.70	3.6745
23.72	3.6752
23.73	3.6758
23.75	3.6764
23.76	3.6770
23.78	3.6777
23.80	3.6781
23.81	3.6785
23.83	3.6790
23.84	3.6795
23.86	3.6798
23.88	3.6802
23.90	3.6806
23.92	3.6809
23.93	3.6813
23.95	3.6816
23.96	3.6819
23.98	3.6823
23.99	3.6825
24.00	3.6829
24.03	3.6835
24.04	3.6841
24.06	3.6849
24.08	3.6856
24.09	3.6859
24.11	3.6866
24.13	3.6872
24.14	3.6877
24.16	3.6882
24.18	3.6887
24.19	3.6890
24.21	3.6894
24.23	3.6898
24.24	3.6902
24.26	3.6907
24.28	3.6911
24.29	3.6914
24.31	3.6917
24.32	3.6922
24.34	3.6926
24.36	3.6929
24.38	3.6933
24.39	3.6939
24.41	3.6945
24.43	3.6954
24.44	3.6961
24.46	3.6967
24.48	3.6974
24.49	3.6979
24.50	3.6984
24.52	3.6989
24.54	3.6992
24.56	3.6997
24.57	3.7002
24.59	3.7005
24.61	3.7011
24.62	3.7015
24.64	3.7019
24.66	3.7022
24.67	3.7026
24.69	3.7030
24.70	3.7033
24.72	3.7037
24.74	3.7042
24.75	3.7048
24.77	3.7054
24.79	3.7059
24.80	3.7064
24.82	3.7071
24.84	3.7075
24.86	3.7081
24.88	3.7086
24.89	3.7091
24.90	3.7097
24.92	3.7102
24.93	3.7106
24.95	3.7111
24.97	3.7117
24.99	3.7121
25.00	3.7126
25.02	3.7130
25.03	3.7135
25.05	3.7139
25.07	3.7142
25.08	3.7146
25.10	3.7150
25.12	3.7156
25.14	3.7164
25.15	3.7170
25.17	3.7176
25.19	3.7181
25.20	3.7188
25.22	3.7194
25.23	3.7200
25.25	3.7203
25.27	3.7208
25.28	3.7211
25.30	3.7215
25.32	3.7220
25.33	3.7222
25.35	3.7226
25.36	3.7231
25.38	3.7237
25.40	3.7241
25.42	3.7245
25.43	3.7248
25.45	3.7251
25.47	3.7256
25.48	3.7260
25.50	3.7265
25.52	3.7272
25.53	3.7280
25.55	3.7284
25.56	3.7289
25.58	3.7294
25.59	3.7300
25.61	3.7306
25.63	3.7310
25.65	3.7315
25.66	3.7321
25.68	3.7325
25.70	3.7329
25.72	3.7334
25.73	3.7339
25.75	3.7341
25.76	3.7345
25.78	3.7351
25.79	3.7352
25.81	3.7355
25.83	3.7358
25.84	3.7361
25.87	3.7369
25.88	3.7378
25.90	3.7384
25.92	3.7390
25.93	3.7397
25.95	3.7403
25.96	3.7410
25.98	3.7413
25.99	3.7417
26.01	3.7420
26.03	3.7424
26.05	3.7430
26.06	3.7434
26.08	3.7437
26.09	3.7440
26.11	3.7445
26.13	3.7449
26.15	3.7452
26.16	3.7456
26.18	3.7460
26.19	3.7468
26.21	3.7472
26.23	3.7477
26.24	3.7484
26.25	3.7489
26.28	3.7496
26.30	3.7502
26.31	3.7507
26.32	3.7512
26.34	3.7517
26.36	3.7523
26.38	3.7527
26.39	3.7534
26.40	3.7538
26.43	3.7544
26.44	3.7549
26.45	3.7555
26.47	3.7559
26.49	3.7562
26.51	3.7566
26.53	3.7571
26.54	3.7574
26.56	3.7581
26.57	3.7587
26.59	3.7593
26.60	3.7600
26.63	3.7606
26.64	3.7612
26.66	3.7618
26.68	3.7623
26.69	3.7627
26.70	3.7631
26.72	3.7638
26.74	3.7642
26.75	3.7648
26.77	3.7652
26.79	3.7656
26.80	3.7661
26.82	3.7665
26.84	3.7671
26.85	3.7675
26.87	3.7680
26.89	3.7685
26.91	3.7691
26.93	3.7697
26.94	3.7703
26.96	3.7710
26.98	3.7716
26.99	3.7722
27.00	3.7728
27.02	3.7732
27.04	3.7738
27.05	3.7743
27.07	3.7748
27.09	3.7753
27.10	3.7757
27.12	3.7760
27.14	3.7765
27.15	3.7769
27.17	3.7773
27.18	3.7777
27.20	3.7781
27.22	3.7785
27.23	3.7791
27.25	3.7797
27.27	3.7803
27.29	3.7810
27.30	3.7816
27.32	3.7822
27.33	3.7827
27.35	3.7831
27.37	3.7835
27.39	3.7839
27.40	3.7843
27.42	3.7846
27.44	3.7851
27.45	3.7854
27.47	3.7857
27.48	3.7860
27.50	3.7862
27.52	3.7864
27.53	3.7867
27.55	3.7872
27.57	3.7875
27.58	3.7879
27.60	3.7881
27.62	3.7884
27.63	3.7890
27.65	3.7896
27.67	3.7902
27.68	3.7910
27.70	3.7916
27.72	3.7920
27.74	3.7925
27.75	3.7931
27.76	3.7935
27.78	3.7938
27.80	3.7942
27.82	3.7945
27.83	3.7950
27.85	3.7954
27.87	3.7958
27.88	3.7962
27.90	3.7967
27.92	3.7970
27.93	3.7976
27.95	3.7980
27.97	3.7984
27.98	3.7990
28.00	3.7996
28.02	3.8002
28.03	3.8008
28.05	3.8017
28.06	3.8021
28.08	3.8028
28.10	3.8032
28.12	3.8039
28.13	3.8042
28.15	3.8046
28.17	3.8049
28.18	3.8054
28.20	3.8059
28.22	3.8064
28.23	3.8069
28.25	3.8071
28.26	3.8077
28.28	3.8082
28.30	3.8084
28.32	3.8090
28.33	3.8094
28.34	3.8101
28.36	3.8107
28.38	3.8113
28.40	3.8120
28.42	3.8129
28.43	3.8136
28.45	3.8144
28.46	3.8149
28.48	3.8153
28.50	3.8159
28.51	3.8162
28.53	3.8169
28.55	3.8172
28.56	3.8178
28.58	3.8182
28.59	3.8187
28.61	3.8191
28.63	3.8194
28.65	3.8199
28.66	3.8203
28.68	3.8208
28.70	3.8214
28.72	3.8221
28.73	3.8228
28.75	3.8237
28.77	3.8244
28.78	3.8251
28.79	3.8256
28.81	3.8264
28.83	3.8268
28.85	3.8273
28.86	3.8276
28.88	3.8282
28.90	3.8286
28.91	3.8292
28.93	3.8296
28.95	3.8301
28.96	3.8305
28.98	3.8309
29.00	3.8314
29.01	3.8318
29.03	3.8323
29.05	3.8326
29.07	3.8332
29.08	3.8343
29.09	3.8348
29.11	3.8357
29.13	3.8363
29.15	3.8365
29.16	3.8374
29.18	3.8380
29.19	3.8388
29.21	3.8391
29.23	3.8396
29.25	3.8399
29.26	3.8403
29.28	3.8406
29.30	3.8410
29.31	3.8412
29.32	3.8417
29.34	3.8419
29.36	3.8426
29.38	3.8428
29.39	3.8430
29.41	3.8436
29.43	3.8442
29.44	3.8449
29.46	3.8457
29.48	3.8465
29.50	3.8471
29.51	3.8476
29.53	3.8481
29.54	3.8487
29.56	3.8492
29.57	3.8498
29.59	3.8502
29.61	3.8509
29.63	3.8512
29.64	3.8515
29.66	3.8520
29.68	3.8526
29.69	3.8530
29.70	3.8532
29.73	3.8538
29.74	3.8540
29.75	3.8545
29.78	3.8549
29.79	3.8555
29.81	3.8561
29.82	3.8567
29.84	3.8574
29.85	3.8579
29.88	3.8586
29.89	3.8590
29.90	3.8595
29.92	3.8603
29.94	3.8605
29.96	3.8610
29.98	3.8617
29.99	3.8620
30.01	3.8621
30.03	3.8626
30.04	3.8629
30.05	3.8632
30.07	3.8637
30.09	3.8640
30.10	3.8647
30.13	3.8652
30.14	3.8658
30.16	3.8664
30.17	3.8670
30.19	3.8678
30.20	3.8686
30.22	3.8690
30.24	3.8697
30.25	3.8704
30.28	3.8705
30.29	3.8710
30.30	3.8713
30.32	3.8717
30.34	3.8719
30.35	3.8723
30.37	3.8727
30.39	3.8732
30.40	3.8736
30.42	3.8741
30.44	3.8745
30.45	3.8751
30.47	3.8756
30.49	3.8762
30.50	3.8768
30.52	3.8774
30.53	3.8779
30.55	3.8787
30.57	3.8793
30.59	3.8796
30.60	3.8801
30.62	3.8807
30.64	3.8811
30.65	3.8814
30.67	3.8818
30.69	3.8821
30.70	3.8825
30.72	3.8829
30.73	3.8832
30.75	3.8836
30.77	3.8840
30.79	3.8843
30.80	3.8846
30.81	3.8852
30.84	3.8857
30.86	3.8866
30.87	3.8874
30.89	3.8879
30.90	3.8884
30.92	3.8890
30.94	3.8896
30.95	3.8901
30.97	3.8904
30.99	3.8908
31.00	3.8912
31.02	3.8916
31.03	3.8922
31.05	3.8926
31.07	3.8928
31.08	3.8932
31.10	3.8938
31.12	3.8942
31.13	3.8947
31.15	3.8953
31.17	3.8957
31.18	3.8961
31.20	3.8965
31.21	3.8971
31.23	3.8978
31.25	3.8988
31.26	3.8993
31.28	3.8998
31.30	3.9003
31.31	3.9008
31.33	3.9012
31.35	3.9018
31.36	3.9024
31.38	3.9029
31.40	3.9033
31.42	3.9037
31.43	3.9040
31.45	3.9043
31.46	3.9046
31.48	3.9050
31.50	3.9055
31.51	3.9058
31.53	3.9063
31.55	3.9067
31.56	3.9073
31.57	3.9080
31.60	3.9087
31.61	3.9094
31.63	3.9100
31.65	3.9106
31.66	3.9112
31.68	3.9118
31.70	3.9123
31.72	3.9129
31.73	3.9133
31.75	3.9140
31.77	3.9145
31.78	3.9151
31.80	3.9154
31.82	3.9158
31.82	3.9162
31.85	3.9167
31.86	3.9171
31.88	3.9177
31.90	3.9181
31.91	3.9190
31.93	3.9197
31.94	3.9203
31.96	3.9207
31.98	3.9211
31.99	3.9217
32.01	3.9225
32.03	3.9232
32.05	3.9238
32.06	3.9245
32.08	3.9249
32.09	3.9254
32.11	3.9259
32.13	3.9263
32.15	3.9269
32.16	3.9274
32.17	3.9277
32.20	3.9279
32.21	3.9285
32.23	3.9288
32.24	3.9293
32.26	3.9301
32.27	3.9306
32.29	3.9314
32.31	3.9319
32.33	3.9325
32.34	3.9330
32.36	3.9336
32.38	3.9342
32.39	3.9347
32.41	3.9353
32.43	3.9358
32.44	3.9364
32.45	3.9368
32.47	3.9372
32.49	3.9375
32.51	3.9379
32.52	3.9381
32.54	3.9387
32.56	3.9392
32.58	3.9396
32.59	3.9400
32.61	3.9408
32.63	3.9415
32.65	3.9420
32.66	3.9426
32.67	3.9433
32.69	3.9440
32.71	3.9448
32.73	3.9453
32.74	3.9457
32.76	3.9461
32.78	3.9465
32.80	3.9471
32.81	3.9473
32.83	3.9477
32.84	3.9481
32.85	3.9487
32.87	3.9491
32.89	3.9497
32.91	3.9502
32.92	3.9507
32.94	3.9509
32.95	3.9515
32.97	3.9523
32.99	3.9529
33.00	3.9536
33.02	3.9542
33.04	3.9548
33.05	3.9553
33.07	3.9558
33.09	3.9563
33.10	3.9566
33.12	3.9572
33.14	3.9578
33.16	3.9582
33.17	3.9586
33.19	3.9591
33.20	3.9597
33.22	3.9601
33.23	3.9605
33.25	3.9609
33.27	3.9611
33.28	3.9616
33.30	3.9617
33.32	3.9624
33.33	3.9631
33.36	3.9638
33.38	3.9643
33.39	3.9648
33.40	3.9653
33.42	3.9657
33.44	3.9662
33.45	3.9668
33.47	3.9672
33.49	3.9677
33.50	3.9681
33.52	3.9684
33.53	3.9690
33.55	3.9695
33.57	3.9697
33.58	3.9701
33.60	3.9703
33.62	3.9706
33.63	3.9709
33.65	3.9712
33.67	3.9719
33.68	3.9725
33.70	3.9731
33.72	3.9739
33.73	3.9746
33.75	3.9752
33.77	3.9756
33.79	3.9760
33.80	3.9765
33.82	3.9769
33.84	3.9772
33.85	3.9777
33.87	3.9779
33.89	3.9784
