Filename:	D:\TGAdata\„∆√ŒœÈ\20150506\20%5mm.pdid

Temperature (°„C)	Heat Flow Endo Up (mW)
24.30	9.0603
24.20	9.8726
24.10	9.7697
24.00	9.6088
23.89	9.3940
23.79	9.1418
23.69	8.8692
23.58	8.5908
23.49	8.3169
23.38	8.4482
23.28	9.2423
23.18	9.1224
23.08	8.9451
22.98	8.7156
22.88	8.4496
22.78	8.1641
22.68	7.8735
22.57	7.5884
22.48	7.3152
22.38	7.0597
22.28	6.8242
22.18	6.6110
22.07	6.4201
21.98	6.2512
21.87	6.1030
21.78	5.9738
21.68	5.8614
21.58	5.7645
21.48	5.6804
21.38	5.6070
21.28	5.5425
21.18	5.4847
21.08	5.4320
20.99	5.3827
20.89	5.3350
20.79	5.2882
20.69	5.2407
20.59	5.1920
20.50	5.1411
20.40	5.0875
20.30	5.0307
20.20	4.9707
20.11	4.9069
20.01	4.8395
19.91	4.7685
19.81	4.6933
19.72	4.6152
19.63	4.5334
19.53	4.4481
19.43	4.3601
19.34	4.2696
19.24	4.1769
19.14	4.0824
19.05	3.9864
18.95	3.8890
18.85	3.7906
18.75	3.6915
18.66	3.5922
18.57	3.4927
18.48	3.3934
18.38	3.2943
18.29	3.1964
18.19	3.0991
18.09	3.0037
18.00	2.9091
17.90	2.8157
17.81	2.7236
17.72	2.6336
17.62	2.5455
17.53	2.4585
17.43	2.3742
17.34	2.2920
17.25	2.2115
17.15	2.1334
17.06	2.0568
16.97	1.9831
16.88	1.9113
16.78	1.8409
16.69	1.7728
16.59	1.7067
16.50	1.6430
16.41	1.5807
16.32	1.5206
16.23	1.4622
16.14	1.4059
16.05	1.3510
15.95	1.2974
15.86	1.2458
15.77	1.1956
15.68	1.1468
15.58	1.0992
15.49	1.0536
15.40	1.0091
15.31	0.9667
15.22	0.9246
15.13	0.8844
15.03	0.8450
14.94	0.8064
14.85	0.7687
14.76	0.7317
14.68	0.6959
14.58	0.6614
14.49	0.6272
14.40	0.5945
14.31	0.5623
14.23	0.5307
14.13	0.4943
14.05	0.3600
13.95	-0.0184
13.86	-0.6551
13.78	-1.4985
13.69	-2.4841
13.60	-3.5588
13.52	-4.6809
13.44	-5.8184
13.36	-6.9484
13.28	-8.0538
13.21	-9.1220
13.14	-10.1430
13.08	-11.1095
13.02	-12.0154
12.95	-12.8575
12.90	-13.6333
12.85	-14.3418
12.80	-14.9834
12.76	-15.5589
12.72	-16.0685
12.68	-16.5148
12.65	-16.9012
12.63	-17.2301
12.60	-17.5066
12.58	-17.7333
12.56	-17.9132
12.54	-18.0520
12.53	-18.1523
12.51	-18.2176
12.51	-18.2525
12.50	-18.2590
12.49	-18.2408
12.49	-18.2010
12.48	-18.1416
12.48	-18.0651
12.48	-17.9749
12.48	-17.8710
12.48	-17.7563
12.49	-17.6315
12.50	-17.4982
12.50	-17.3571
12.50	-17.2100
12.51	-17.0570
12.52	-16.8986
12.53	-16.7357
12.54	-16.5689
12.55	-16.3984
12.55	-16.2239
12.57	-16.0460
12.58	-15.8657
12.59	-15.6820
12.60	-15.4962
12.61	-15.3079
12.62	-15.1175
12.64	-14.9247
12.65	-14.7295
12.66	-14.5333
12.68	-14.3355
12.69	-14.1357
12.70	-13.9345
12.72	-13.7315
12.73	-13.5270
12.74	-13.3211
12.76	-13.1138
12.77	-12.9054
12.79	-12.6957
12.80	-12.4851
12.82	-12.2740
12.83	-12.0621
12.85	-11.8494
12.86	-11.6356
12.88	-11.4216
12.89	-11.2074
12.91	-10.9935
12.92	-10.7796
12.93	-10.5658
12.95	-10.3525
12.97	-10.1400
12.98	-9.9279
12.99	-9.7164
13.00	-9.5052
13.02	-9.2951
13.04	-9.0861
13.06	-8.8784
13.08	-8.6719
13.09	-8.4669
13.10	-8.2634
13.13	-8.0614
13.14	-7.8609
13.15	-7.6615
13.17	-7.4640
13.18	-7.2682
13.20	-7.0744
13.22	-6.8824
13.24	-6.6925
13.25	-6.5052
13.27	-6.3200
13.28	-6.1371
13.30	-5.9566
13.31	-5.7786
13.33	-5.6031
13.34	-5.4297
13.36	-5.2588
13.38	-5.0902
13.39	-4.9240
13.40	-4.7603
13.42	-4.5992
13.44	-4.4401
13.46	-4.2838
13.47	-4.1298
13.49	-3.9784
13.51	-3.8293
13.53	-3.6827
13.54	-3.5383
13.55	-3.3965
13.57	-3.2571
13.58	-3.1203
13.60	-2.9856
13.62	-2.8536
13.64	-2.7238
13.65	-2.5961
13.67	-2.4709
13.69	-2.3481
13.70	-2.2274
13.72	-2.1092
13.74	-1.9931
13.75	-1.8793
13.77	-1.7677
13.79	-1.6585
13.80	-1.5508
13.82	-1.4452
13.83	-1.3415
13.85	-1.2401
13.87	-1.1408
13.89	-1.0435
13.90	-0.9482
13.92	-0.8551
13.93	-0.7640
13.95	-0.6745
13.97	-0.5868
13.98	-0.5010
14.00	-0.4171
14.02	-0.3348
14.03	-0.2545
14.05	-0.1759
14.07	-0.0992
14.08	-0.0239
14.10	0.0499
14.12	0.1221
14.13	0.1927
14.15	0.2618
14.17	0.3296
14.18	0.3960
14.20	0.4610
14.22	0.5244
14.23	0.5862
14.25	0.6466
14.27	0.7056
14.28	0.7637
14.30	0.8201
14.32	0.8755
14.33	0.9297
14.35	0.9827
14.37	1.0347
14.38	1.0851
14.40	1.1347
14.41	1.1828
14.43	1.2301
14.45	1.2762
14.47	1.3211
14.48	1.3655
14.50	1.4088
14.51	1.4513
14.53	1.4928
14.55	1.5333
14.56	1.5728
14.58	1.6114
14.59	1.6490
14.62	1.6860
14.63	1.7215
14.65	1.7565
14.66	1.7907
14.68	1.8241
14.70	1.8568
14.72	1.8887
14.73	1.9200
14.75	1.9503
14.76	1.9800
14.78	2.0091
14.80	2.0374
14.81	2.0652
14.83	2.0922
14.85	2.1186
14.87	2.1441
14.88	2.1695
14.89	2.1940
14.91	2.2180
14.93	2.2414
14.95	2.2644
14.96	2.2866
14.98	2.3085
15.00	2.3297
15.02	2.3507
15.03	2.3709
15.05	2.3906
15.06	2.4101
15.08	2.4290
15.10	2.4473
15.11	2.4653
15.13	2.4828
15.15	2.5000
15.16	2.5171
15.18	2.5336
15.20	2.5500
15.22	2.5659
15.23	2.5812
15.25	2.5961
15.27	2.6107
15.28	2.6249
15.30	2.6388
15.31	2.6524
15.33	2.6656
15.35	2.6785
15.36	2.6912
15.38	2.7036
15.40	2.7155
15.41	2.7272
15.43	2.7387
15.45	2.7499
15.46	2.7607
15.48	2.7712
15.50	2.7818
15.51	2.7921
15.53	2.8020
15.55	2.8116
15.56	2.8211
15.58	2.8305
15.60	2.8396
15.61	2.8485
15.63	2.8571
15.65	2.8656
15.66	2.8741
15.68	2.8821
15.70	2.8901
15.71	2.8979
15.73	2.9053
15.75	2.9126
15.76	2.9194
15.78	2.9263
15.80	2.9330
15.81	2.9397
15.83	2.9464
15.85	2.9530
15.87	2.9595
15.88	2.9659
15.90	2.9723
15.91	2.9783
15.93	2.9839
15.95	2.9896
15.96	2.9950
15.98	3.0003
16.00	3.0056
16.01	3.0107
16.03	3.0156
16.05	3.0205
16.07	3.0252
16.08	3.0297
16.09	3.0341
16.11	3.0386
16.13	3.0427
16.15	3.0470
16.17	3.0513
16.18	3.0555
16.20	3.0596
16.21	3.0636
16.23	3.0672
16.25	3.0712
16.26	3.0747
16.28	3.0780
16.30	3.0814
16.31	3.0848
16.33	3.0881
16.35	3.0914
16.37	3.0948
16.38	3.0977
16.40	3.1010
16.42	3.1039
16.43	3.1067
16.45	3.1094
16.46	3.1121
16.48	3.1148
16.49	3.1175
16.51	3.1204
16.53	3.1232
16.54	3.1259
16.56	3.1285
16.58	3.1310
16.59	3.1335
16.61	3.1360
16.63	3.1383
16.65	3.1405
16.67	3.1428
16.68	3.1449
16.70	3.1471
16.71	3.1490
16.73	3.1508
16.75	3.1528
16.77	3.1550
16.78	3.1567
16.79	3.1583
16.81	3.1601
16.83	3.1618
16.84	3.1636
16.86	3.1653
16.88	3.1671
16.89	3.1687
16.91	3.1705
16.93	3.1719
16.95	3.1735
16.97	3.1753
16.98	3.1768
17.00	3.1783
17.01	3.1798
17.03	3.1813
17.05	3.1830
17.07	3.1846
17.08	3.1861
17.10	3.1876
17.12	3.1891
17.13	3.1903
17.15	3.1918
17.17	3.1932
17.18	3.1946
17.20	3.1959
17.21	3.1970
17.23	3.1981
17.25	3.1995
17.26	3.2006
17.28	3.2016
17.30	3.2027
17.32	3.2037
17.33	3.2049
17.34	3.2061
17.36	3.2074
17.38	3.2084
17.40	3.2098
17.42	3.2110
17.43	3.2121
17.45	3.2130
17.46	3.2139
17.48	3.2148
17.50	3.2159
17.51	3.2171
17.53	3.2181
17.54	3.2190
17.56	3.2199
17.58	3.2208
17.59	3.2218
17.61	3.2225
17.63	3.2233
17.65	3.2242
17.66	3.2250
17.68	3.2258
17.70	3.2266
17.71	3.2274
17.73	3.2284
17.75	3.2290
17.77	3.2298
17.78	3.2306
17.79	3.2316
17.81	3.2325
17.83	3.2334
17.84	3.2343
17.86	3.2350
17.88	3.2360
17.89	3.2370
17.91	3.2376
17.93	3.2383
17.95	3.2389
17.96	3.2396
17.98	3.2403
18.00	3.2409
18.01	3.2417
18.03	3.2423
18.05	3.2431
18.06	3.2436
18.07	3.2443
18.09	3.2449
18.11	3.2452
18.13	3.2457
18.15	3.2464
18.17	3.2473
18.18	3.2481
18.20	3.2487
18.21	3.2494
18.23	3.2501
18.25	3.2508
18.26	3.2515
18.28	3.2520
18.30	3.2525
18.31	3.2531
18.33	3.2536
18.34	3.2543
18.36	3.2547
18.38	3.2555
18.40	3.2560
18.41	3.2564
18.43	3.2567
18.45	3.2571
18.46	3.2576
18.48	3.2581
18.50	3.2587
18.51	3.2592
18.53	3.2600
18.55	3.2608
18.56	3.2612
18.58	3.2619
18.60	3.2626
18.61	3.2630
18.63	3.2634
18.65	3.2639
18.66	3.2643
18.68	3.2648
18.70	3.2651
18.72	3.2654
18.73	3.2658
18.75	3.2663
18.76	3.2665
18.78	3.2669
18.80	3.2674
18.82	3.2678
18.83	3.2684
18.84	3.2688
18.86	3.2692
18.88	3.2698
18.89	3.2704
18.91	3.2709
18.93	3.2714
18.94	3.2719
18.96	3.2724
18.98	3.2729
19.00	3.2732
19.01	3.2737
19.03	3.2741
19.04	3.2744
19.06	3.2750
19.08	3.2752
19.09	3.2755
19.11	3.2758
19.13	3.2762
19.15	3.2766
19.16	3.2770
19.18	3.2775
19.20	3.2778
19.21	3.2782
19.23	3.2786
19.24	3.2790
19.26	3.2794
19.28	3.2800
19.30	3.2805
19.32	3.2810
19.33	3.2814
19.34	3.2818
19.36	3.2825
19.38	3.2828
19.39	3.2831
19.40	3.2835
19.43	3.2838
19.44	3.2843
19.46	3.2845
19.48	3.2849
19.49	3.2854
19.51	3.2855
19.53	3.2858
19.54	3.2861
19.56	3.2865
19.57	3.2868
19.59	3.2869
19.61	3.2874
19.62	3.2880
19.64	3.2886
19.65	3.2892
19.68	3.2897
19.69	3.2902
19.71	3.2908
19.72	3.2913
19.74	3.2917
19.75	3.2921
19.77	3.2926
19.79	3.2929
19.81	3.2932
19.82	3.2936
19.84	3.2942
19.86	3.2945
19.88	3.2949
19.89	3.2954
19.90	3.2958
19.92	3.2960
19.95	3.2963
19.96	3.2966
19.98	3.2971
19.99	3.2974
20.01	3.2980
20.02	3.2987
20.04	3.2993
20.06	3.2999
20.07	3.3002
20.09	3.3007
20.11	3.3011
20.13	3.3015
20.15	3.3017
20.16	3.3023
20.17	3.3025
20.19	3.3031
20.20	3.3032
20.22	3.3038
20.24	3.3041
20.26	3.3044
20.28	3.3046
20.29	3.3050
20.30	3.3052
20.32	3.3055
20.34	3.3061
20.36	3.3066
20.37	3.3071
20.39	3.3077
20.40	3.3083
20.42	3.3088
20.44	3.3095
20.46	3.3101
20.47	3.3106
20.49	3.3111
20.51	3.3116
20.53	3.3119
20.54	3.3122
20.56	3.3124
20.57	3.3127
20.59	3.3130
20.61	3.3134
20.63	3.3136
20.64	3.3140
20.66	3.3144
20.68	3.3147
20.69	3.3151
20.71	3.3155
20.72	3.3161
20.74	3.3165
20.75	3.3169
20.77	3.3174
20.79	3.3180
20.81	3.3183
20.82	3.3189
20.84	3.3196
20.85	3.3198
20.88	3.3202
20.89	3.3208
20.90	3.3212
20.92	3.3216
20.94	3.3220
20.96	3.3223
20.98	3.3226
20.99	3.3230
21.00	3.3233
21.02	3.3237
21.04	3.3243
21.05	3.3245
21.07	3.3249
21.09	3.3253
21.11	3.3259
21.12	3.3266
21.14	3.3271
21.15	3.3275
21.17	3.3281
21.19	3.3285
21.20	3.3290
21.23	3.3295
21.24	3.3300
21.25	3.3303
21.27	3.3306
21.29	3.3310
21.30	3.3314
21.32	3.3317
21.33	3.3321
21.35	3.3326
21.37	3.3329
21.39	3.3333
21.40	3.3335
21.42	3.3339
21.44	3.3343
21.45	3.3346
21.47	3.3350
21.49	3.3357
21.50	3.3363
21.52	3.3369
21.54	3.3373
21.55	3.3377
21.57	3.3383
21.58	3.3388
21.60	3.3390
21.62	3.3395
21.63	3.3400
21.65	3.3404
21.67	3.3407
21.68	3.3411
21.70	3.3413
21.72	3.3417
21.74	3.3422
21.75	3.3424
21.77	3.3429
21.78	3.3432
21.80	3.3436
21.82	3.3443
21.83	3.3450
21.85	3.3454
21.87	3.3461
21.89	3.3468
21.91	3.3472
21.92	3.3476
21.93	3.3482
21.95	3.3486
21.97	3.3490
21.99	3.3497
22.00	3.3501
22.02	3.3505
22.04	3.3511
22.05	3.3513
22.07	3.3518
22.08	3.3521
22.10	3.3525
22.12	3.3527
22.14	3.3533
22.15	3.3535
22.17	3.3542
22.19	3.3550
22.20	3.3555
22.22	3.3562
22.24	3.3569
22.25	3.3572
22.27	3.3576
22.28	3.3581
22.30	3.3585
22.32	3.3590
22.33	3.3596
22.35	3.3601
22.37	3.3606
22.38	3.3612
22.40	3.3615
22.41	3.3617
22.43	3.3621
22.45	3.3623
22.47	3.3625
22.49	3.3632
22.50	3.3635
22.52	3.3638
22.53	3.3641
22.55	3.3647
22.57	3.3656
22.58	3.3659
22.60	3.3663
22.62	3.3669
22.63	3.3671
22.65	3.3676
22.67	3.3683
22.68	3.3685
22.70	3.3688
22.71	3.3692
22.73	3.3694
22.75	3.3697
22.77	3.3700
22.78	3.3702
22.80	3.3704
22.82	3.3707
22.84	3.3712
22.85	3.3716
22.87	3.3719
22.88	3.3723
22.90	3.3728
22.91	3.3734
22.93	3.3737
22.95	3.3745
22.97	3.3751
22.98	3.3755
23.00	3.3762
23.02	3.3766
23.03	3.3769
23.05	3.3774
23.06	3.3778
23.08	3.3782
23.09	3.3785
23.11	3.3788
23.13	3.3790
23.15	3.3794
23.16	3.3797
23.18	3.3801
23.20	3.3804
23.21	3.3807
23.23	3.3811
23.25	3.3815
23.27	3.3818
23.28	3.3824
23.30	3.3830
23.32	3.3835
23.33	3.3843
23.34	3.3849
23.37	3.3854
23.38	3.3859
23.40	3.3864
23.41	3.3867
23.43	3.3874
23.45	3.3879
23.46	3.3881
23.48	3.3885
23.50	3.3889
23.51	3.3891
23.53	3.3895
23.55	3.3899
23.56	3.3903
23.58	3.3906
23.59	3.3910
23.62	3.3915
23.63	3.3919
23.65	3.3927
23.66	3.3934
23.68	3.3940
23.70	3.3946
23.72	3.3952
23.73	3.3958
23.74	3.3961
23.76	3.3963
23.78	3.3968
23.80	3.3972
23.82	3.3978
23.83	3.3981
23.85	3.3987
23.87	3.3992
23.88	3.3995
23.89	3.3998
23.91	3.4001
23.93	3.4005
23.95	3.4010
23.96	3.4011
23.98	3.4017
24.00	3.4023
24.02	3.4029
24.03	3.4034
24.05	3.4040
24.06	3.4047
24.08	3.4053
24.09	3.4056
24.11	3.4062
24.12	3.4066
24.14	3.4070
24.16	3.4075
24.18	3.4077
24.20	3.4081
24.21	3.4087
24.23	3.4090
24.24	3.4093
24.26	3.4095
24.28	3.4098
24.29	3.4103
24.31	3.4106
24.33	3.4108
24.34	3.4113
24.36	3.4118
24.38	3.4125
24.39	3.4128
24.40	3.4134
24.43	3.4140
24.45	3.4144
24.46	3.4149
24.48	3.4153
24.50	3.4156
24.51	3.4161
24.53	3.4165
24.54	3.4167
24.56	3.4171
24.58	3.4173
24.59	3.4176
24.61	3.4180
24.63	3.4183
24.64	3.4188
24.65	3.4191
24.67	3.4195
24.69	3.4198
24.71	3.4203
24.73	3.4209
24.75	3.4214
24.76	3.4219
24.78	3.4223
24.80	3.4229
24.81	3.4234
24.83	3.4236
24.84	3.4240
24.86	3.4246
24.88	3.4250
24.90	3.4252
24.91	3.4257
24.93	3.4258
24.94	3.4265
24.96	3.4268
24.98	3.4273
24.99	3.4278
25.01	3.4282
25.03	3.4285
25.04	3.4288
25.06	3.4291
25.07	3.4297
25.09	3.4302
25.11	3.4308
25.13	3.4313
25.14	3.4319
25.16	3.4325
25.18	3.4328
25.19	3.4332
25.21	3.4337
25.23	3.4339
25.24	3.4345
25.26	3.4348
25.28	3.4350
25.30	3.4353
25.30	3.4357
25.32	3.4360
25.34	3.4365
25.36	3.4370
25.38	3.4373
25.39	3.4375
25.41	3.4378
25.42	3.4382
25.44	3.4387
25.45	3.4395
25.47	3.4401
25.49	3.4408
25.51	3.4413
25.53	3.4417
25.54	3.4422
25.56	3.4425
25.57	3.4431
25.59	3.4436
25.60	3.4438
25.63	3.4442
25.64	3.4446
25.65	3.4449
25.67	3.4451
25.69	3.4455
25.70	3.4460
25.73	3.4463
25.74	3.4469
25.76	3.4473
25.78	3.4475
25.79	3.4481
25.81	3.4487
25.82	3.4494
25.84	3.4500
25.85	3.4507
25.87	3.4514
25.89	3.4519
25.90	3.4523
25.92	3.4527
25.94	3.4529
25.96	3.4536
25.97	3.4539
25.98	3.4544
26.00	3.4547
26.02	3.4552
26.04	3.4554
26.06	3.4559
26.08	3.4563
26.09	3.4568
26.10	3.4571
26.12	3.4575
26.14	3.4580
26.15	3.4587
26.17	3.4593
26.18	3.4599
26.20	3.4604
26.22	3.4609
26.24	3.4615
26.26	3.4620
26.27	3.4625
26.29	3.4629
26.30	3.4635
26.32	3.4640
26.34	3.4644
26.36	3.4648
26.37	3.4651
26.39	3.4657
26.40	3.4663
26.42	3.4668
26.44	3.4673
26.45	3.4678
26.47	3.4681
26.48	3.4683
26.50	3.4687
26.52	3.4693
26.54	3.4701
26.55	3.4709
26.57	3.4713
26.59	3.4718
26.60	3.4723
26.62	3.4728
26.64	3.4735
26.65	3.4739
26.67	3.4745
26.69	3.4750
26.70	3.4753
26.72	3.4756
26.73	3.4757
26.75	3.4759
26.77	3.4764
26.79	3.4768
26.80	3.4772
26.82	3.4775
26.84	3.4780
26.85	3.4784
26.87	3.4792
26.89	3.4797
26.90	3.4801
26.92	3.4807
26.94	3.4813
26.95	3.4817
26.97	3.4822
26.99	3.4826
27.00	3.4830
27.02	3.4833
27.04	3.4836
27.05	3.4839
27.07	3.4842
27.08	3.4844
27.10	3.4847
27.12	3.4850
27.13	3.4852
27.15	3.4857
27.17	3.4860
27.19	3.4864
27.20	3.4867
27.22	3.4872
27.23	3.4877
27.25	3.4882
27.27	3.4885
27.29	3.4890
27.30	3.4893
27.32	3.4898
27.33	3.4902
27.35	3.4907
27.37	3.4908
27.38	3.4913
27.40	3.4914
27.42	3.4918
27.44	3.4923
27.45	3.4928
27.47	3.4934
27.48	3.4938
27.50	3.4941
27.52	3.4941
27.54	3.4945
27.55	3.4948
27.57	3.4949
27.59	3.4953
27.60	3.4958
27.62	3.4964
27.64	3.4969
27.65	3.4976
27.67	3.4982
27.69	3.4989
27.70	3.4992
27.72	3.4998
27.74	3.5003
27.75	3.5008
27.77	3.5013
27.79	3.5016
27.80	3.5020
27.82	3.5024
27.84	3.5030
27.85	3.5034
27.87	3.5040
27.88	3.5045
27.90	3.5047
27.92	3.5051
27.94	3.5056
27.95	3.5063
27.97	3.5067
27.98	3.5074
28.00	3.5080
28.03	3.5088
28.04	3.5095
28.05	3.5100
28.07	3.5105
28.09	3.5111
28.10	3.5116
28.12	3.5121
28.14	3.5127
28.15	3.5130
28.17	3.5137
28.19	3.5142
28.20	3.5147
28.22	3.5150
28.23	3.5154
28.25	3.5159
28.27	3.5162
28.28	3.5167
28.30	3.5171
28.32	3.5177
28.34	3.5183
28.35	3.5190
28.37	3.5197
28.39	3.5205
28.40	3.5211
28.42	3.5218
28.44	3.5224
28.45	3.5226
28.47	3.5231
28.49	3.5234
28.50	3.5239
28.52	3.5242
28.53	3.5246
28.55	3.5250
28.57	3.5255
28.58	3.5259
28.60	3.5264
28.62	3.5268
28.64	3.5273
28.65	3.5276
28.67	3.5282
28.69	3.5289
28.70	3.5295
28.72	3.5302
28.73	3.5309
28.75	3.5316
28.77	3.5322
28.78	3.5328
28.80	3.5333
28.82	3.5337
28.84	3.5343
28.85	3.5346
28.87	3.5351
28.89	3.5356
28.90	3.5359
28.92	3.5363
28.94	3.5368
28.95	3.5370
28.97	3.5376
28.99	3.5382
29.00	3.5386
29.02	3.5392
29.03	3.5396
29.05	3.5403
29.07	3.5409
29.08	3.5416
29.10	3.5421
29.12	3.5428
29.14	3.5431
29.15	3.5435
29.17	3.5440
29.18	3.5444
29.20	3.5449
29.22	3.5455
29.23	3.5456
29.25	3.5459
29.27	3.5463
29.29	3.5469
29.30	3.5473
29.31	3.5476
29.33	3.5482
29.35	3.5485
29.37	3.5488
29.39	3.5495
29.40	3.5500
29.42	3.5506
29.43	3.5511
29.45	3.5515
29.47	3.5521
29.48	3.5526
29.50	3.5530
29.52	3.5536
29.54	3.5539
29.55	3.5543
29.57	3.5547
29.59	3.5552
29.60	3.5554
29.62	3.5559
29.63	3.5563
29.65	3.5567
29.67	3.5572
29.69	3.5577
29.70	3.5579
29.72	3.5581
29.73	3.5585
29.75	3.5591
29.76	3.5596
29.78	3.5600
29.80	3.5604
29.82	3.5610
29.83	3.5615
29.85	3.5618
29.87	3.5623
29.88	3.5630
29.90	3.5632
29.92	3.5636
29.93	3.5640
29.95	3.5643
29.97	3.5647
29.99	3.5649
30.00	3.5655
30.02	3.5659
30.04	3.5662
30.05	3.5667
30.07	3.5669
30.09	3.5673
30.10	3.5677
30.12	3.5680
30.14	3.5688
30.15	3.5695
30.16	3.5702
30.18	3.5706
30.20	3.5712
30.22	3.5716
30.23	3.5722
30.25	3.5723
30.27	3.5728
30.29	3.5731
30.30	3.5736
30.32	3.5737
30.33	3.5741
30.35	3.5744
30.37	3.5749
30.38	3.5752
30.40	3.5757
30.42	3.5760
30.44	3.5762
30.45	3.5767
30.47	3.5774
30.49	3.5781
30.50	3.5787
30.52	3.5793
30.53	3.5796
30.55	3.5801
30.57	3.5806
30.58	3.5810
30.60	3.5814
30.62	3.5820
30.63	3.5826
30.65	3.5829
30.67	3.5835
30.68	3.5839
30.70	3.5845
30.72	3.5850
30.73	3.5855
30.75	3.5857
30.77	3.5862
30.78	3.5863
30.80	3.5867
30.82	3.5871
30.83	3.5875
30.85	3.5882
30.87	3.5887
30.88	3.5893
30.90	3.5898
30.92	3.5906
30.93	3.5911
30.95	3.5917
30.97	3.5922
30.99	3.5926
31.00	3.5929
31.02	3.5933
31.04	3.5937
31.05	3.5939
31.07	3.5942
31.08	3.5946
31.10	3.5949
31.12	3.5951
31.13	3.5956
31.15	3.5961
31.16	3.5968
31.18	3.5975
31.20	3.5981
31.22	3.5986
31.23	3.5992
31.25	3.5994
31.27	3.6000
31.29	3.6006
31.30	3.6011
31.32	3.6016
31.33	3.6023
31.35	3.6025
31.36	3.6029
31.38	3.6035
31.40	3.6040
31.42	3.6042
31.43	3.6047
31.45	3.6049
31.47	3.6054
31.48	3.6057
31.50	3.6060
31.52	3.6066
31.53	3.6075
31.55	3.6080
31.57	3.6087
31.58	3.6093
31.60	3.6097
31.62	3.6102
31.63	3.6108
31.65	3.6113
31.66	3.6116
31.68	3.6121
31.70	3.6122
31.71	3.6126
31.73	3.6129
31.75	3.6134
31.77	3.6137
31.78	3.6140
31.80	3.6144
31.82	3.6149
31.83	3.6154
31.85	3.6157
31.86	3.6163
31.88	3.6167
31.90	3.6170
31.92	3.6177
31.93	3.6182
31.95	3.6188
31.96	3.6192
31.98	3.6198
32.00	3.6203
32.02	3.6209
32.03	3.6214
32.05	3.6219
32.07	3.6222
32.09	3.6226
32.10	3.6228
32.12	3.6232
32.13	3.6237
32.15	3.6241
32.17	3.6245
32.18	3.6248
32.20	3.6251
32.22	3.6254
32.23	3.6259
32.24	3.6265
32.26	3.6269
32.28	3.6278
32.30	3.6284
32.31	3.6290
32.33	3.6295
32.34	3.6301
32.36	3.6307
32.38	3.6311
32.39	3.6314
32.41	3.6318
32.43	3.6322
32.45	3.6325
32.46	3.6328
32.48	3.6333
32.49	3.6339
32.52	3.6341
32.53	3.6347
32.55	3.6352
32.57	3.6356
32.58	3.6361
32.60	3.6367
32.62	3.6371
32.63	3.6377
32.65	3.6384
32.67	3.6390
32.68	3.6396
32.70	3.6402
32.71	3.6405
32.73	3.6409
32.74	3.6413
32.76	3.6417
32.77	3.6423
32.79	3.6426
32.81	3.6431
32.83	3.6433
32.85	3.6439
32.87	3.6441
32.88	3.6445
32.89	3.6448
32.91	3.6452
32.93	3.6455
32.95	3.6460
32.96	3.6467
32.98	3.6471
33.00	3.6478
33.02	3.6484
33.03	3.6490
33.05	3.6495
33.06	3.6501
33.08	3.6506
33.09	3.6508
33.11	3.6510
33.13	3.6514
33.15	3.6518
33.16	3.6521
33.18	3.6524
33.20	3.6528
33.20	3.6534
33.23	3.6538
33.24	3.6541
