Filename:	D:\TGAdata\„∆√ŒœÈ\20150506\10%5mm.pdid

Temperature (°„C)	Heat Flow Endo Up (mW)
10.21	1.2729
10.21	1.2960
10.21	1.3051
10.21	1.3023
10.21	1.2911
10.21	1.2746
10.22	1.2558
10.22	1.2373
10.22	1.2199
10.23	1.2040
10.23	1.1908
10.23	1.1794
10.25	1.1703
10.25	1.1631
10.26	1.1573
10.27	1.1525
10.28	1.1483
10.29	1.1443
10.30	1.1408
10.31	1.1371
10.33	1.1329
10.34	1.1282
10.35	1.1225
10.36	1.1159
10.37	1.1087
10.39	1.1006
10.40	1.0920
10.42	1.0828
10.43	1.0736
10.44	1.0644
10.46	1.0551
10.48	1.0460
10.49	1.0370
10.51	1.0284
10.52	1.0204
10.53	1.0129
10.55	1.0064
10.57	1.0007
10.58	0.9959
10.60	0.9924
10.61	0.9901
10.63	0.9887
10.64	0.9887
10.66	0.9901
10.68	0.9928
10.69	0.9969
10.71	1.0024
10.73	1.0093
10.74	1.0176
10.76	1.0273
10.77	1.0382
10.78	1.0505
10.80	1.0642
10.82	1.0787
10.83	1.0945
10.85	1.1114
10.87	1.1291
10.88	1.1480
10.90	1.1675
10.92	1.1881
10.93	1.2095
10.95	1.2316
10.96	1.2543
10.98	1.2776
11.00	1.3016
11.01	1.3261
11.03	1.3512
11.05	1.3765
11.06	1.4020
11.08	1.4279
11.10	1.4541
11.11	1.4805
11.13	1.5075
11.15	1.5345
11.16	1.5611
11.18	1.5881
11.19	1.6151
11.21	1.6419
11.23	1.6685
11.25	1.6951
11.26	1.7217
11.28	1.7482
11.29	1.7744
11.31	1.8004
11.33	1.8262
11.34	1.8517
11.35	1.8771
11.37	1.9021
11.39	1.9267
11.41	1.9511
11.43	1.9752
11.44	1.9993
11.45	2.0230
11.47	2.0464
11.49	2.0692
11.51	2.0917
11.52	2.1139
11.53	2.1356
11.55	2.1571
11.57	2.1783
11.59	2.1990
11.60	2.2194
11.62	2.2395
11.64	2.2591
11.66	2.2785
11.67	2.2972
11.69	2.3154
11.70	2.3337
11.72	2.3514
11.74	2.3689
11.75	2.3859
11.78	2.4027
11.79	2.4192
11.80	2.4357
11.82	2.4516
11.84	2.4673
11.85	2.4827
11.87	2.4976
11.88	2.5121
11.90	2.5262
11.92	2.5399
11.94	2.5535
11.95	2.5664
11.97	2.5793
11.99	2.5919
12.00	2.6042
12.02	2.6162
12.04	2.6278
12.06	2.6394
12.07	2.6506
12.08	2.6614
12.10	2.6722
12.12	2.6828
12.14	2.6931
12.16	2.7028
12.18	2.7128
12.19	2.7222
12.20	2.7315
12.22	2.7405
12.24	2.7494
12.25	2.7578
12.27	2.7661
12.29	2.7743
12.31	2.7825
12.32	2.7903
12.33	2.7979
12.35	2.8051
12.37	2.8123
12.39	2.8194
12.40	2.8262
12.42	2.8329
12.43	2.8392
12.45	2.8455
12.47	2.8518
12.49	2.8578
12.50	2.8641
12.52	2.8700
12.53	2.8758
12.55	2.8812
12.57	2.8866
12.58	2.8921
12.60	2.8972
12.62	2.9023
12.63	2.9071
12.65	2.9117
12.67	2.9163
12.69	2.9207
12.70	2.9251
12.72	2.9293
12.74	2.9332
12.75	2.9371
12.77	2.9412
12.78	2.9450
12.80	2.9487
12.82	2.9524
12.83	2.9560
12.85	2.9594
12.87	2.9628
12.88	2.9661
12.90	2.9692
12.92	2.9723
12.93	2.9753
12.95	2.9782
12.97	2.9811
12.98	2.9839
13.00	2.9867
13.02	2.9895
13.04	2.9920
13.05	2.9946
13.07	2.9971
13.09	2.9995
13.10	3.0018
13.12	3.0040
13.13	3.0062
13.15	3.0084
13.17	3.0109
13.18	3.0132
13.20	3.0157
13.22	3.0180
13.24	3.0201
13.25	3.0223
13.27	3.0244
13.28	3.0262
13.30	3.0282
13.32	3.0299
13.34	3.0314
13.35	3.0331
13.37	3.0348
13.39	3.0364
13.40	3.0380
13.42	3.0394
13.44	3.0410
13.45	3.0426
13.47	3.0442
13.48	3.0457
13.50	3.0471
13.52	3.0485
13.54	3.0497
13.55	3.0511
13.56	3.0524
13.58	3.0536
13.60	3.0549
13.62	3.0560
13.64	3.0571
13.65	3.0584
13.67	3.0597
13.69	3.0607
13.70	3.0619
13.72	3.0629
13.73	3.0639
13.75	3.0649
13.77	3.0660
13.79	3.0668
13.80	3.0675
13.82	3.0687
13.84	3.0695
13.85	3.0704
13.87	3.0717
13.89	3.0729
13.90	3.0740
13.92	3.0751
13.93	3.0759
13.95	3.0770
13.97	3.0778
13.98	3.0787
14.00	3.0795
14.02	3.0804
14.04	3.0812
14.05	3.0818
14.07	3.0825
14.08	3.0834
14.10	3.0841
14.12	3.0849
14.14	3.0856
14.15	3.0863
14.17	3.0871
14.18	3.0878
14.20	3.0884
14.22	3.0892
14.24	3.0899
14.25	3.0906
14.27	3.0913
14.29	3.0918
14.30	3.0925
14.33	3.0930
14.34	3.0936
14.36	3.0941
14.38	3.0947
14.39	3.0954
14.40	3.0960
14.42	3.0965
14.43	3.0971
14.45	3.0977
14.47	3.0983
14.48	3.0988
14.50	3.0994
14.52	3.0999
14.54	3.1006
14.55	3.1012
14.57	3.1021
14.59	3.1028
14.60	3.1035
14.62	3.1043
14.64	3.1048
14.65	3.1054
14.67	3.1060
14.69	3.1064
14.70	3.1071
14.72	3.1077
14.74	3.1080
14.75	3.1086
14.78	3.1091
14.79	3.1096
14.80	3.1102
14.82	3.1108
14.84	3.1114
14.85	3.1119
14.87	3.1123
14.88	3.1130
14.90	3.1135
14.91	3.1138
14.93	3.1142
14.95	3.1146
14.97	3.1152
14.99	3.1157
15.00	3.1162
15.03	3.1170
15.04	3.1175
15.05	3.1179
15.07	3.1184
15.09	3.1188
15.10	3.1193
15.12	3.1198
15.14	3.1202
15.15	3.1205
15.17	3.1209
15.18	3.1214
15.20	3.1218
15.22	3.1223
15.24	3.1229
15.25	3.1236
15.27	3.1241
15.29	3.1246
15.30	3.1253
15.32	3.1257
15.34	3.1264
15.35	3.1267
15.37	3.1272
15.39	3.1276
15.40	3.1280
15.43	3.1285
15.44	3.1288
15.45	3.1293
15.47	3.1296
15.49	3.1299
15.50	3.1304
15.52	3.1307
15.54	3.1311
15.55	3.1316
15.57	3.1321
15.59	3.1324
15.61	3.1330
15.63	3.1334
15.64	3.1339
15.66	3.1342
15.67	3.1346
15.69	3.1351
15.71	3.1357
15.73	3.1364
15.74	3.1367
15.75	3.1371
15.77	3.1375
15.79	3.1378
15.80	3.1382
15.83	3.1386
15.84	3.1389
15.85	3.1392
15.88	3.1396
15.89	3.1402
15.90	3.1407
15.92	3.1414
15.93	3.1419
15.95	3.1426
15.97	3.1431
15.98	3.1434
16.00	3.1439
16.02	3.1442
16.04	3.1446
16.05	3.1451
16.07	3.1455
16.09	3.1459
16.11	3.1463
16.12	3.1468
16.14	3.1471
16.15	3.1476
16.17	3.1481
16.19	3.1486
16.20	3.1490
16.22	3.1495
16.23	3.1498
16.25	3.1502
16.27	3.1506
16.29	3.1508
16.30	3.1516
16.32	3.1520
16.34	3.1525
16.35	3.1529
16.37	3.1534
16.39	3.1538
16.40	3.1542
16.43	3.1545
16.44	3.1550
16.45	3.1554
16.46	3.1558
16.48	3.1560
16.50	3.1566
16.52	3.1570
16.54	3.1574
16.55	3.1577
16.57	3.1583
16.59	3.1589
16.61	3.1594
16.62	3.1599
16.64	3.1605
16.65	3.1609
16.67	3.1612
16.69	3.1615
16.70	3.1619
16.73	3.1623
16.74	3.1628
16.76	3.1631
16.77	3.1635
16.79	3.1638
16.80	3.1643
16.82	3.1646
16.84	3.1648
16.85	3.1651
16.87	3.1656
16.89	3.1661
16.91	3.1665
16.92	3.1669
16.93	3.1673
16.95	3.1678
16.97	3.1683
16.99	3.1685
17.00	3.1689
17.02	3.1693
17.04	3.1698
17.06	3.1703
17.07	3.1707
17.09	3.1713
17.10	3.1720
17.12	3.1726
17.14	3.1732
17.15	3.1739
17.17	3.1745
17.19	3.1749
17.21	3.1755
17.23	3.1760
17.24	3.1766
17.25	3.1771
17.27	3.1776
17.28	3.1781
17.30	3.1784
17.32	3.1787
17.34	3.1790
17.35	3.1795
17.37	3.1799
17.39	3.1804
17.40	3.1809
17.42	3.1815
17.44	3.1818
17.45	3.1823
17.47	3.1829
17.49	3.1835
17.50	3.1842
17.52	3.1849
17.54	3.1856
17.55	3.1861
17.57	3.1866
17.59	3.1871
17.61	3.1877
17.62	3.1883
17.64	3.1888
17.65	3.1893
17.67	3.1899
17.69	3.1904
17.70	3.1909
17.72	3.1913
17.74	3.1916
17.75	3.1919
17.77	3.1924
17.78	3.1928
17.80	3.1934
17.82	3.1937
17.84	3.1944
17.86	3.1951
17.87	3.1957
17.89	3.1962
17.90	3.1969
17.92	3.1972
17.93	3.1976
17.95	3.1981
17.97	3.1985
17.99	3.1988
18.00	3.1991
18.02	3.1995
18.03	3.1997
18.05	3.2002
18.07	3.2007
18.08	3.2011
18.09	3.2015
18.12	3.2018
18.13	3.2024
18.15	3.2027
18.17	3.2028
18.18	3.2033
18.20	3.2038
18.22	3.2043
18.23	3.2049
18.25	3.2054
18.27	3.2058
18.29	3.2065
18.30	3.2068
18.32	3.2071
18.34	3.2074
18.35	3.2078
18.37	3.2081
18.38	3.2083
18.40	3.2087
18.42	3.2088
18.44	3.2091
18.45	3.2094
18.47	3.2096
18.48	3.2099
18.50	3.2101
18.52	3.2105
18.53	3.2109
18.55	3.2114
18.56	3.2120
18.58	3.2125
18.60	3.2131
18.62	3.2135
18.63	3.2138
18.65	3.2143
18.67	3.2147
18.69	3.2151
18.70	3.2154
18.72	3.2159
18.73	3.2162
18.75	3.2164
18.77	3.2168
18.78	3.2170
18.80	3.2173
18.82	3.2175
18.83	3.2178
18.85	3.2181
18.87	3.2184
18.89	3.2188
18.90	3.2191
18.92	3.2191
18.93	3.2195
18.95	3.2202
18.97	3.2207
18.98	3.2212
19.00	3.2216
19.02	3.2221
19.04	3.2225
19.05	3.2229
19.07	3.2233
19.08	3.2235
19.10	3.2238
19.12	3.2241
19.14	3.2242
19.15	3.2246
19.17	3.2247
19.18	3.2250
19.20	3.2253
19.22	3.2254
19.24	3.2257
19.25	3.2261
19.27	3.2262
19.29	3.2265
19.30	3.2270
19.31	3.2275
19.33	3.2279
19.35	3.2284
19.37	3.2287
19.38	3.2293
19.40	3.2298
19.42	3.2302
19.43	3.2307
19.45	3.2307
19.47	3.2308
19.48	3.2312
19.50	3.2315
19.51	3.2317
19.53	3.2321
19.55	3.2323
19.56	3.2327
19.58	3.2330
19.60	3.2332
19.62	3.2334
19.63	3.2335
19.65	3.2337
19.67	3.2342
19.69	3.2347
19.70	3.2352
19.72	3.2357
19.73	3.2363
19.75	3.2368
19.77	3.2373
19.78	3.2377
19.79	3.2381
19.81	3.2384
19.83	3.2389
19.85	3.2393
19.86	3.2395
19.88	3.2399
19.90	3.2403
19.91	3.2405
19.93	3.2406
19.95	3.2410
19.96	3.2412
19.98	3.2415
20.00	3.2419
20.01	3.2422
20.03	3.2428
20.05	3.2435
20.07	3.2441
20.08	3.2446
20.10	3.2453
20.11	3.2456
20.13	3.2461
20.15	3.2465
20.17	3.2469
20.18	3.2474
20.20	3.2478
20.21	3.2481
20.23	3.2487
20.25	3.2490
20.26	3.2492
20.28	3.2496
20.30	3.2499
20.31	3.2499
20.33	3.2502
20.34	3.2505
20.36	3.2507
20.38	3.2512
20.39	3.2518
20.41	3.2523
20.43	3.2531
20.45	3.2538
20.46	3.2544
20.48	3.2550
20.50	3.2555
20.51	3.2560
20.53	3.2563
20.54	3.2567
20.56	3.2570
20.58	3.2574
20.59	3.2577
20.61	3.2579
20.63	3.2582
20.65	3.2585
20.66	3.2589
20.68	3.2593
20.70	3.2595
20.71	3.2597
20.73	3.2599
20.75	3.2602
20.76	3.2605
20.78	3.2609
20.80	3.2617
20.81	3.2621
20.82	3.2628
20.84	3.2632
20.85	3.2636
20.88	3.2641
20.90	3.2652
20.91	3.2658
20.93	3.2655
20.94	3.2658
20.96	3.2660
20.98	3.2662
20.99	3.2667
21.01	3.2670
21.03	3.2672
21.05	3.2675
21.06	3.2679
21.07	3.2682
21.09	3.2684
21.11	3.2687
21.13	3.2692
21.15	3.2698
21.16	3.2704
21.18	3.2709
21.20	3.2713
21.21	3.2717
21.23	3.2723
21.24	3.2727
21.25	3.2732
21.28	3.2736
21.29	3.2740
21.31	3.2744
21.32	3.2749
21.34	3.2754
21.36	3.2757
21.38	3.2759
21.40	3.2763
21.41	3.2766
21.43	3.2769
21.44	3.2771
21.46	3.2775
21.48	3.2777
21.50	3.2782
21.51	3.2790
21.53	3.2795
21.54	3.2802
21.56	3.2808
21.57	3.2811
21.59	3.2817
21.61	3.2823
21.63	3.2828
21.64	3.2831
21.65	3.2833
21.67	3.2837
21.69	3.2840
21.71	3.2841
21.73	3.2845
21.74	3.2847
21.76	3.2849
21.78	3.2854
21.79	3.2856
21.80	3.2860
21.82	3.2864
21.84	3.2867
21.85	3.2870
21.87	3.2876
21.89	3.2882
21.91	3.2886
21.93	3.2892
21.94	3.2898
21.96	3.2902
21.98	3.2908
21.99	3.2915
22.00	3.2917
22.03	3.2922
22.04	3.2926
22.06	3.2929
22.07	3.2931
22.09	3.2936
22.10	3.2939
22.13	3.2944
22.14	3.2947
22.15	3.2949
22.17	3.2951
22.18	3.2955
22.20	3.2957
22.23	3.2963
22.24	3.2970
22.26	3.2974
22.27	3.2980
22.28	3.2984
22.30	3.2987
22.32	3.2992
22.34	3.2999
22.35	3.3004
22.37	3.3008
22.39	3.3014
22.40	3.3017
22.42	3.3020
22.44	3.3027
22.46	3.3030
22.48	3.3032
22.49	3.3035
22.50	3.3037
22.53	3.3041
22.54	3.3046
22.55	3.3048
22.57	3.3052
22.59	3.3057
22.60	3.3062
22.62	3.3068
22.63	3.3074
22.65	3.3077
22.68	3.3083
22.69	3.3088
22.71	3.3093
22.72	3.3099
22.74	3.3103
22.75	3.3104
22.78	3.3108
22.79	3.3113
22.80	3.3115
22.82	3.3120
22.84	3.3123
22.85	3.3125
22.87	3.3131
22.89	3.3133
22.90	3.3137
22.92	3.3140
22.93	3.3142
22.95	3.3148
22.97	3.3152
22.99	3.3158
23.00	3.3164
23.02	3.3169
23.03	3.3173
23.05	3.3178
23.07	3.3182
23.09	3.3184
23.10	3.3187
23.13	3.3192
23.14	3.3195
23.15	3.3199
23.17	3.3203
23.18	3.3206
23.20	3.3210
23.22	3.3214
23.24	3.3217
23.25	3.3220
23.27	3.3224
23.28	3.3227
23.30	3.3231
23.32	3.3237
23.34	3.3242
23.35	3.3247
23.37	3.3253
23.39	3.3258
23.40	3.3262
23.42	3.3268
23.44	3.3272
23.45	3.3275
23.47	3.3280
23.48	3.3283
23.50	3.3289
23.52	3.3291
23.54	3.3294
23.55	3.3298
23.57	3.3301
23.58	3.3303
23.60	3.3306
23.62	3.3311
23.63	3.3314
23.65	3.3316
23.67	3.3323
23.68	3.3329
23.70	3.3335
23.71	3.3341
23.73	3.3344
23.75	3.3350
23.77	3.3352
23.78	3.3358
23.78	3.3360
23.81	3.3364
23.83	3.3367
23.85	3.3370
23.87	3.3375
23.88	3.3379
23.90	3.3383
23.92	3.3385
23.93	3.3388
23.95	3.3391
23.97	3.3393
23.98	3.3398
24.00	3.3402
24.01	3.3405
24.03	3.3410
24.05	3.3414
24.07	3.3420
24.08	3.3425
24.10	3.3430
24.11	3.3434
24.13	3.3438
24.15	3.3442
24.17	3.3448
24.18	3.3451
24.19	3.3453
24.22	3.3458
24.24	3.3460
24.25	3.3465
24.27	3.3466
24.28	3.3469
24.30	3.3472
24.31	3.3474
24.33	3.3478
24.35	3.3483
24.37	3.3486
24.38	3.3490
24.40	3.3495
24.41	3.3500
24.43	3.3506
24.45	3.3510
24.47	3.3516
24.48	3.3521
24.50	3.3526
24.51	3.3533
24.53	3.3538
24.55	3.3541
24.57	3.3547
24.58	3.3549
24.60	3.3553
24.61	3.3559
24.63	3.3561
24.65	3.3566
24.66	3.3570
24.68	3.3572
24.69	3.3575
24.71	3.3579
24.73	3.3582
24.75	3.3586
24.76	3.3591
24.78	3.3596
24.79	3.3602
24.81	3.3609
24.83	3.3613
24.84	3.3617
24.87	3.3624
24.88	3.3628
24.90	3.3630
24.91	3.3636
24.93	3.3640
24.94	3.3644
24.96	3.3649
24.98	3.3651
25.00	3.3657
25.01	3.3661
25.03	3.3663
25.04	3.3666
25.06	3.3670
25.07	3.3673
25.09	3.3676
25.11	3.3681
25.13	3.3686
25.14	3.3692
25.15	3.3697
25.18	3.3703
25.19	3.3707
25.21	3.3714
25.23	3.3719
25.24	3.3722
25.26	3.3728
25.28	3.3731
25.30	3.3735
25.31	3.3740
25.33	3.3744
25.34	3.3746
25.36	3.3752
25.38	3.3756
25.40	3.3762
25.41	3.3764
25.43	3.3767
25.45	3.3772
25.47	3.3775
25.48	3.3779
25.49	3.3785
25.51	3.3792
25.52	3.3797
25.54	3.3805
25.56	3.3810
25.58	3.3814
25.59	3.3821
25.61	3.3824
25.62	3.3827
25.64	3.3831
25.67	3.3833
25.68	3.3839
25.69	3.3843
25.71	3.3847
25.73	3.3850
25.75	3.3853
25.76	3.3857
25.78	3.3858
25.79	3.3862
25.81	3.3866
25.82	3.3870
25.84	3.3875
25.85	3.3882
25.88	3.3887
25.89	3.3893
25.91	3.3900
25.93	3.3906
25.94	3.3911
25.96	3.3914
25.98	3.3917
25.99	3.3921
26.01	3.3925
26.03	3.3927
26.04	3.3932
26.06	3.3935
26.08	3.3940
26.09	3.3943
26.10	3.3946
26.12	3.3951
26.14	3.3954
26.16	3.3957
26.17	3.3961
26.19	3.3964
26.21	3.3972
26.22	3.3977
26.24	3.3983
26.25	3.3989
26.28	3.3994
26.29	3.3998
26.31	3.4003
26.32	3.4007
26.34	3.4013
26.36	3.4016
26.37	3.4021
26.39	3.4025
26.41	3.4029
26.43	3.4031
26.44	3.4035
26.45	3.4041
26.47	3.4045
26.49	3.4051
26.50	3.4055
26.52	3.4060
26.54	3.4064
26.56	3.4069
26.57	3.4076
26.59	3.4082
26.61	3.4088
26.63	3.4094
26.63	3.4097
26.65	3.4103
26.68	3.4106
26.69	3.4112
26.70	3.4118
26.72	3.4124
26.74	3.4129
26.75	3.4131
26.78	3.4134
26.79	3.4138
26.80	3.4142
26.82	3.4144
26.84	3.4149
26.85	3.4154
26.88	3.4156
26.89	3.4161
26.91	3.4163
26.93	3.4168
26.94	3.4178
26.96	3.4188
26.98	3.4198
26.99	3.4205
27.00	3.4211
27.02	3.4215
27.04	3.4220
27.05	3.4223
27.07	3.4225
27.09	3.4226
27.10	3.4227
27.12	3.4230
27.13	3.4231
27.15	3.4234
27.17	3.4236
27.19	3.4238
27.21	3.4242
27.22	3.4245
27.24	3.4248
27.25	3.4252
27.27	3.4256
27.29	3.4259
27.30	3.4264
27.32	3.4268
27.34	3.4273
27.36	3.4277
27.38	3.4283
27.39	3.4287
27.41	3.4290
27.42	3.4292
27.44	3.4295
27.45	3.4297
27.47	3.4298
27.48	3.4302
27.50	3.4303
27.52	3.4306
27.54	3.4309
27.55	3.4312
27.57	3.4313
27.59	3.4317
27.61	3.4320
27.62	3.4321
27.64	3.4325
27.65	3.4328
27.67	3.4333
27.69	3.4336
27.71	3.4341
27.72	3.4344
27.74	3.4350
27.76	3.4354
27.78	3.4359
27.79	3.4362
27.80	3.4366
27.82	3.4369
27.83	3.4372
27.85	3.4374
27.88	3.4376
27.89	3.4381
27.90	3.4384
27.93	3.4388
27.94	3.4391
27.95	3.4391
27.97	3.4396
27.99	3.4399
28.01	3.4404
28.03	3.4412
28.04	3.4421
28.06	3.4427
28.07	3.4435
28.09	3.4439
28.10	3.4445
28.12	3.4451
28.14	3.4457
28.15	3.4462
28.17	3.4466
28.19	3.4473
28.20	3.4475
28.22	3.4479
28.24	3.4484
28.25	3.4488
28.27	3.4492
28.29	3.4497
28.30	3.4502
28.32	3.4507
28.33	3.4513
28.35	3.4518
28.37	3.4526
28.39	3.4534
28.40	3.4539
28.42	3.4544
28.44	3.4549
28.45	3.4555
28.47	3.4561
28.49	3.4569
28.50	3.4573
28.52	3.4578
28.54	3.4583
28.56	3.4588
28.57	3.4593
28.59	3.4598
28.61	3.4603
28.63	3.4605
28.64	3.4610
28.65	3.4614
28.67	3.4618
28.69	3.4621
28.70	3.4626
28.72	3.4629
28.74	3.4637
28.75	3.4642
28.77	3.4650
28.79	3.4656
28.80	3.4661
28.82	3.4665
28.84	3.4670
28.85	3.4675
28.88	3.4679
28.90	3.4684
28.91	3.4688
28.92	3.4693
28.94	3.4696
28.95	3.4699
28.97	3.4703
28.99	3.4707
29.00	3.4710
29.02	3.4714
29.03	3.4718
29.05	3.4721
29.07	3.4725
29.08	3.4730
29.10	3.4737
29.12	3.4741
29.14	3.4748
29.15	3.4753
29.17	3.4759
29.18	3.4766
29.20	3.4769
29.22	3.4774
29.24	3.4778
29.25	3.4783
29.27	3.4787
29.29	3.4791
29.31	3.4793
29.32	3.4796
29.34	3.4800
29.35	3.4802
29.37	3.4806
29.39	3.4812
29.40	3.4815
29.42	3.4821
29.44	3.4826
29.45	3.4831
29.47	3.4835
29.49	3.4841
29.50	3.4847
29.52	3.4852
29.54	3.4857
29.55	3.4862
29.57	3.4865
29.59	3.4868
29.60	3.4871
29.62	3.4876
29.64	3.4881
29.66	3.4885
29.67	3.4889
29.69	3.4891
29.70	3.4895
29.72	3.4900
29.73	3.4904
29.75	3.4906
29.77	3.4910
29.79	3.4914
29.80	3.4918
29.82	3.4925
29.83	3.4930
29.85	3.4935
29.88	3.4940
29.89	3.4945
29.90	3.4949
29.92	3.4956
29.93	3.4959
29.95	3.4964
29.97	3.4967
29.99	3.4971
30.00	3.4975
30.02	3.4979
30.04	3.4983
30.05	3.4986
30.07	3.4990
30.09	3.4993
30.10	3.4995
30.12	3.4998
30.14	3.5002
30.15	3.5009
30.17	3.5014
30.19	3.5020
30.20	3.5025
30.22	3.5033
30.23	3.5037
30.24	3.5041
30.27	3.5045
30.28	3.5048
30.30	3.5051
30.32	3.5054
30.34	3.5057
30.35	3.5062
30.37	3.5066
30.39	3.5070
30.40	3.5074
30.42	3.5080
30.43	3.5084
30.45	3.5086
30.47	3.5093
30.48	3.5092
30.50	3.5097
30.52	3.5104
30.54	3.5110
30.55	3.5115
30.57	3.5121
30.59	3.5125
30.60	3.5133
30.62	3.5138
30.64	3.5142
30.65	3.5148
30.67	3.5152
30.68	3.5156
30.70	3.5160
30.72	3.5166
30.74	3.5168
30.75	3.5171
30.77	3.5173
30.78	3.5177
30.80	3.5179
30.82	3.5184
30.84	3.5188
30.85	3.5193
30.87	3.5196
30.89	3.5201
30.90	3.5207
30.92	3.5212
30.94	3.5217
30.95	3.5221
30.97	3.5225
30.99	3.5229
31.00	3.5234
31.02	3.5240
31.04	3.5246
31.05	3.5249
31.07	3.5253
31.09	3.5259
31.10	3.5261
31.12	3.5265
31.13	3.5268
31.15	3.5271
31.17	3.5275
31.18	3.5279
31.20	3.5283
31.22	3.5288
31.24	3.5293
31.25	3.5298
31.27	3.5304
31.28	3.5309
31.30	3.5314
31.32	3.5319
31.34	3.5325
31.35	3.5328
31.37	3.5332
31.38	3.5336
31.40	3.5338
31.42	3.5343
31.43	3.5346
31.45	3.5350
31.47	3.5354
31.48	3.5359
31.50	3.5361
31.52	3.5366
31.53	3.5370
31.55	3.5373
31.57	3.5377
31.58	3.5383
31.60	3.5388
31.62	3.5394
31.64	3.5401
31.65	3.5406
31.67	3.5409
31.69	3.5411
31.70	3.5417
31.72	3.5423
31.73	3.5426
31.74	3.5430
31.76	3.5436
31.78	3.5440
31.80	3.5443
31.82	3.5446
31.83	3.5450
31.85	3.5454
31.86	3.5460
31.88	3.5465
31.90	3.5467
31.92	3.5469
31.93	3.5475
31.95	3.5480
31.96	3.5485
31.98	3.5491
32.00	3.5497
32.02	3.5501
32.03	3.5508
32.05	3.5511
32.07	3.5515
32.08	3.5518
32.10	3.5523
32.12	3.5530
32.13	3.5535
32.15	3.5541
32.17	3.5544
32.18	3.5547
32.20	3.5551
32.21	3.5558
32.23	3.5561
32.24	3.5563
32.27	3.5567
32.28	3.5573
32.30	3.5579
32.32	3.5587
32.33	3.5593
32.35	3.5600
32.36	3.5606
32.38	3.5612
32.40	3.5618
32.41	3.5620
32.43	3.5624
32.45	3.5627
32.46	3.5631
32.47	3.5635
32.49	3.5639
32.51	3.5642
32.53	3.5647
32.55	3.5651
32.56	3.5654
32.58	3.5658
32.60	3.5661
32.61	3.5663
32.63	3.5669
32.64	3.5674
32.66	3.5681
32.68	3.5688
32.70	3.5694
32.72	3.5700
32.73	3.5705
32.74	3.5709
32.77	3.5712
32.78	3.5717
32.80	3.5719
32.82	3.5724
32.83	3.5729
32.84	3.5731
32.86	3.5736
32.88	3.5740
32.90	3.5742
32.91	3.5744
32.93	3.5750
32.95	3.5751
32.97	3.5756
32.98	3.5758
32.99	3.5764
33.01	3.5770
33.03	3.5772
33.05	3.5778
33.06	3.5784
33.08	3.5789
33.10	3.5793
33.12	3.5797
33.13	3.5803
33.14	3.5808
33.16	3.5813
33.18	3.5817
33.20	3.5822
33.21	3.5825
33.23	3.5827
33.24	3.5833
33.26	3.5838
33.28	3.5841
33.30	3.5844
33.31	3.5847
33.33	3.5851
33.34	3.5857
33.36	3.5862
33.38	3.5866
33.40	3.5870
33.41	3.5877
33.43	3.5881
33.44	3.5887
33.46	3.5893
33.48	3.5899
33.49	3.5905
33.51	3.5910
33.52	3.5913
33.55	3.5918
