Filename:	D:\TGAdata\„∆√ŒœÈ\20150506\chunPP.pdid

Temperature (°„C)	Heat Flow Endo Up (mW)
10.13	-6.4984
10.14	-6.3741
10.14	-6.2734
10.13	-6.1928
10.13	-6.1259
10.13	-6.0675
10.13	-6.0120
10.13	-5.9559
10.14	-5.8973
10.14	-5.8346
10.14	-5.7676
10.15	-5.6960
10.16	-5.6203
10.17	-5.5412
10.18	-5.4591
10.19	-5.3748
10.20	-5.2891
10.20	-5.2030
10.22	-5.1168
10.23	-5.0309
10.24	-4.9465
10.25	-4.8638
10.26	-4.7832
10.28	-4.7049
10.29	-4.6290
10.30	-4.5557
10.32	-4.4850
10.33	-4.4170
10.35	-4.3510
10.36	-4.2871
10.38	-4.2252
10.39	-4.1650
10.40	-4.1064
10.42	-4.0493
10.43	-3.9934
10.45	-3.9390
10.47	-3.8852
10.48	-3.8316
10.50	-3.7789
10.51	-3.7265
10.53	-3.6742
10.55	-3.6221
10.56	-3.5696
10.58	-3.5170
10.59	-3.4643
10.61	-3.4110
10.62	-3.3571
10.64	-3.3029
10.65	-3.2479
10.67	-3.1918
10.68	-3.1354
10.70	-3.0783
10.72	-3.0203
10.73	-2.9619
10.75	-2.9027
10.77	-2.8427
10.79	-2.7819
10.80	-2.7205
10.82	-2.6585
10.84	-2.5959
10.85	-2.5329
10.86	-2.4695
10.88	-2.4056
10.90	-2.3414
10.91	-2.2767
10.93	-2.2117
10.95	-2.1462
10.96	-2.0806
10.98	-2.0152
11.00	-1.9492
11.01	-1.8833
11.03	-1.8167
11.05	-1.7504
11.06	-1.6841
11.08	-1.6181
11.09	-1.5521
11.11	-1.4860
11.13	-1.4205
11.14	-1.3553
11.15	-1.2903
11.18	-1.2259
11.19	-1.1619
11.20	-1.0982
11.22	-1.0349
11.24	-0.9720
11.26	-0.9092
11.27	-0.8471
11.29	-0.7855
11.30	-0.7243
11.33	-0.6637
11.34	-0.6037
11.35	-0.5443
11.37	-0.4857
11.39	-0.4271
11.40	-0.3694
11.42	-0.3123
11.44	-0.2555
11.45	-0.1996
11.47	-0.1442
11.49	-0.0895
11.50	-0.0356
11.52	0.0178
11.53	0.0707
11.55	0.1227
11.57	0.1742
11.58	0.2251
11.60	0.2750
11.62	0.3244
11.63	0.3730
11.65	0.4211
11.67	0.4684
11.68	0.5153
11.70	0.5615
11.72	0.6071
11.73	0.6522
11.75	0.6967
11.77	0.7404
11.78	0.7835
11.80	0.8263
11.82	0.8681
11.83	0.9093
11.85	0.9497
11.87	0.9897
11.88	1.0292
11.90	1.0678
11.91	1.1058
11.93	1.1431
11.95	1.1799
11.97	1.2161
11.99	1.2518
12.00	1.2869
12.02	1.3215
12.03	1.3557
12.05	1.3892
12.06	1.4221
12.08	1.4547
12.10	1.4866
12.12	1.5181
12.13	1.5489
12.15	1.5795
12.17	1.6093
12.18	1.6387
12.20	1.6680
12.21	1.6965
12.23	1.7245
12.25	1.7521
12.26	1.7791
12.28	1.8058
12.30	1.8318
12.32	1.8577
12.33	1.8830
12.35	1.9078
12.37	1.9324
12.39	1.9563
12.40	1.9800
12.42	2.0034
12.43	2.0266
12.45	2.0491
12.47	2.0714
12.48	2.0934
12.50	2.1150
12.52	2.1361
12.53	2.1567
12.55	2.1768
12.57	2.1966
12.59	2.2161
12.60	2.2354
12.62	2.2544
12.63	2.2731
12.65	2.2911
12.67	2.3090
12.69	2.3268
12.70	2.3441
12.71	2.3611
12.73	2.3778
12.75	2.3940
12.76	2.4100
12.78	2.4258
12.81	2.4413
12.82	2.4566
12.83	2.4717
12.85	2.4864
12.86	2.5010
12.88	2.5153
12.90	2.5293
12.92	2.5430
12.93	2.5563
12.95	2.5694
12.97	2.5824
12.98	2.5952
13.00	2.6077
13.02	2.6201
13.03	2.6322
13.05	2.6440
13.07	2.6556
13.08	2.6674
13.10	2.6790
13.12	2.6903
13.13	2.7015
13.15	2.7123
13.17	2.7231
13.18	2.7335
13.20	2.7435
13.22	2.7537
13.23	2.7634
13.25	2.7728
13.27	2.7822
13.28	2.7915
13.30	2.8005
13.32	2.8093
13.33	2.8181
13.35	2.8268
13.37	2.8353
13.39	2.8436
13.40	2.8519
13.42	2.8599
13.43	2.8678
13.45	2.8756
13.47	2.8833
13.49	2.8909
13.50	2.8985
13.52	2.9058
13.53	2.9132
13.55	2.9203
13.57	2.9273
13.58	2.9344
13.60	2.9410
13.62	2.9476
13.63	2.9541
13.65	2.9608
13.67	2.9671
13.68	2.9731
13.70	2.9790
13.72	2.9851
13.73	2.9908
13.75	2.9965
13.77	3.0023
13.78	3.0080
13.80	3.0136
13.82	3.0192
13.83	3.0247
13.85	3.0298
13.86	3.0350
13.88	3.0400
13.90	3.0449
13.91	3.0497
13.93	3.0543
13.95	3.0589
13.97	3.0635
13.99	3.0679
14.00	3.0722
14.02	3.0765
14.03	3.0807
14.05	3.0847
14.07	3.0886
14.08	3.0926
14.10	3.0966
14.11	3.1003
14.13	3.1042
14.15	3.1081
14.17	3.1118
14.18	3.1157
14.20	3.1192
14.22	3.1228
14.23	3.1262
14.25	3.1296
14.27	3.1329
14.29	3.1363
14.30	3.1395
14.31	3.1428
14.33	3.1459
14.35	3.1491
14.37	3.1522
14.39	3.1552
14.40	3.1580
14.42	3.1610
14.43	3.1641
14.45	3.1671
14.47	3.1703
14.48	3.1732
14.50	3.1762
14.52	3.1791
14.54	3.1819
14.55	3.1843
14.57	3.1869
14.58	3.1894
14.61	3.1918
14.62	3.1943
14.64	3.1966
14.65	3.1990
14.67	3.2014
14.68	3.2038
14.70	3.2059
14.72	3.2081
14.73	3.2103
14.75	3.2124
14.78	3.2144
14.79	3.2165
14.80	3.2187
14.82	3.2209
14.83	3.2230
14.85	3.2250
14.87	3.2271
14.88	3.2293
14.90	3.2314
14.92	3.2334
14.94	3.2352
14.95	3.2370
14.97	3.2388
14.98	3.2407
15.00	3.2426
15.02	3.2444
15.03	3.2459
15.05	3.2476
15.07	3.2491
15.09	3.2507
15.10	3.2522
15.12	3.2537
15.14	3.2554
15.15	3.2571
15.17	3.2588
15.19	3.2605
15.20	3.2620
15.22	3.2633
15.23	3.2647
15.25	3.2663
15.28	3.2677
15.29	3.2691
15.30	3.2704
15.32	3.2716
15.34	3.2730
15.35	3.2742
15.37	3.2753
15.39	3.2765
15.40	3.2776
15.42	3.2787
15.43	3.2800
15.45	3.2810
15.47	3.2825
15.49	3.2838
15.50	3.2849
15.52	3.2861
15.54	3.2874
15.55	3.2885
15.56	3.2897
15.58	3.2910
15.60	3.2919
15.62	3.2932
15.64	3.2942
15.65	3.2952
15.67	3.2962
15.68	3.2972
15.70	3.2983
15.72	3.2992
15.73	3.3002
15.75	3.3011
15.77	3.3019
15.78	3.3029
15.80	3.3040
15.82	3.3053
15.83	3.3063
15.85	3.3076
15.87	3.3087
15.89	3.3098
15.90	3.3107
15.92	3.3117
15.94	3.3127
15.95	3.3137
15.97	3.3146
15.98	3.3156
16.00	3.3165
16.02	3.3174
16.04	3.3180
16.05	3.3187
16.07	3.3194
16.09	3.3201
16.11	3.3207
16.12	3.3215
16.14	3.3223
16.15	3.3232
16.17	3.3241
16.19	3.3247
16.20	3.3255
16.22	3.3264
16.23	3.3273
16.25	3.3280
16.27	3.3289
16.29	3.3298
16.30	3.3305
16.32	3.3314
16.34	3.3322
16.36	3.3331
16.37	3.3339
16.38	3.3346
16.40	3.3352
16.42	3.3358
16.43	3.3365
16.45	3.3372
16.47	3.3380
16.49	3.3389
16.50	3.3398
16.52	3.3407
16.53	3.3416
16.55	3.3422
16.57	3.3429
16.58	3.3436
16.60	3.3444
16.63	3.3449
16.64	3.3456
16.66	3.3463
16.68	3.3470
16.69	3.3475
16.70	3.3479
16.72	3.3485
16.74	3.3491
16.75	3.3496
16.77	3.3500
16.79	3.3505
16.80	3.3512
16.82	3.3519
16.84	3.3524
16.85	3.3530
16.87	3.3537
16.89	3.3542
16.90	3.3547
16.92	3.3553
16.94	3.3559
16.95	3.3565
16.97	3.3572
16.98	3.3577
17.00	3.3585
17.02	3.3592
17.04	3.3602
17.05	3.3608
17.07	3.3617
17.09	3.3625
17.10	3.3630
17.12	3.3639
17.13	3.3645
17.15	3.3652
17.17	3.3658
17.19	3.3664
17.20	3.3670
17.22	3.3676
17.24	3.3680
17.25	3.3684
17.27	3.3690
17.28	3.3697
17.30	3.3702
17.32	3.3706
17.34	3.3712
17.35	3.3718
17.37	3.3724
17.38	3.3730
17.40	3.3738
17.42	3.3747
17.43	3.3754
17.45	3.3762
17.47	3.3771
17.48	3.3780
17.50	3.3788
17.52	3.3796
17.54	3.3802
17.56	3.3808
17.57	3.3814
17.59	3.3821
17.60	3.3826
17.62	3.3832
17.63	3.3837
17.65	3.3843
17.67	3.3851
17.69	3.3858
17.70	3.3866
17.72	3.3873
17.74	3.3881
17.75	3.3889
17.77	3.3899
17.79	3.3909
17.80	3.3919
17.82	3.3927
17.84	3.3933
17.85	3.3940
17.87	3.3947
17.88	3.3953
17.90	3.3958
17.92	3.3962
17.94	3.3967
17.95	3.3973
17.97	3.3978
17.99	3.3984
18.00	3.3989
18.02	3.3994
18.03	3.3997
18.05	3.4003
18.07	3.4006
18.08	3.4009
18.10	3.4013
18.12	3.4018
18.14	3.4023
18.15	3.4030
18.17	3.4037
18.19	3.4043
18.20	3.4049
18.23	3.4054
18.24	3.4060
18.25	3.4063
18.27	3.4067
18.29	3.4071
18.30	3.4075
18.32	3.4079
18.33	3.4080
18.34	3.4082
18.37	3.4085
18.38	3.4088
18.40	3.4090
18.42	3.4093
18.43	3.4096
18.45	3.4100
18.47	3.4104
18.49	3.4108
18.51	3.4115
18.52	3.4120
18.53	3.4127
18.55	3.4131
18.57	3.4138
18.59	3.4141
18.60	3.4145
18.62	3.4150
18.63	3.4154
18.65	3.4157
18.66	3.4159
18.68	3.4161
18.70	3.4164
18.72	3.4166
18.74	3.4170
18.75	3.4172
18.77	3.4173
18.78	3.4174
18.80	3.4178
18.81	3.4181
18.83	3.4184
18.85	3.4189
18.87	3.4194
18.88	3.4200
18.90	3.4204
18.92	3.4208
18.94	3.4212
18.95	3.4215
18.97	3.4218
18.99	3.4221
19.00	3.4224
19.02	3.4228
19.03	3.4231
19.05	3.4234
19.07	3.4236
19.08	3.4239
19.10	3.4243
19.12	3.4248
19.13	3.4250
19.14	3.4255
19.16	3.4259
19.18	3.4264
19.20	3.4268
19.22	3.4272
19.24	3.4278
19.25	3.4285
19.26	3.4289
19.28	3.4294
19.30	3.4301
19.32	3.4305
19.33	3.4310
19.35	3.4315
19.37	3.4320
19.39	3.4323
19.40	3.4327
19.42	3.4332
19.43	3.4335
19.45	3.4337
19.47	3.4340
19.48	3.4344
19.50	3.4349
19.52	3.4352
19.53	3.4356
19.55	3.4358
19.57	3.4361
19.58	3.4366
19.60	3.4372
19.62	3.4377
19.63	3.4382
19.65	3.4387
19.67	3.4393
19.68	3.4399
19.70	3.4401
19.72	3.4405
19.74	3.4408
19.75	3.4413
19.76	3.4417
19.78	3.4420
19.80	3.4424
19.81	3.4428
19.83	3.4430
19.85	3.4433
19.87	3.4437
19.88	3.4440
19.90	3.4443
19.91	3.4446
19.93	3.4448
19.95	3.4454
19.97	3.4460
19.98	3.4467
20.00	3.4472
20.02	3.4476
20.03	3.4481
20.05	3.4487
20.07	3.4491
20.08	3.4495
20.09	3.4500
20.11	3.4505
20.13	3.4509
20.15	3.4514
20.16	3.4518
20.18	3.4521
20.20	3.4523
20.21	3.4526
20.23	3.4528
20.25	3.4528
20.26	3.4534
20.28	3.4537
20.30	3.4540
20.32	3.4546
20.33	3.4552
20.34	3.4557
20.36	3.4562
20.38	3.4564
20.40	3.4567
20.41	3.4571
20.43	3.4573
20.45	3.4575
20.46	3.4578
20.48	3.4580
20.50	3.4584
20.51	3.4588
20.53	3.4590
20.55	3.4592
20.56	3.4596
20.58	3.4598
20.59	3.4600
20.61	3.4602
20.63	3.4605
20.65	3.4608
20.67	3.4613
20.68	3.4617
20.70	3.4624
20.71	3.4631
20.73	3.4635
20.75	3.4640
20.76	3.4645
20.78	3.4649
20.80	3.4653
20.81	3.4658
20.83	3.4661
20.84	3.4665
20.86	3.4670
20.88	3.4673
20.90	3.4678
20.91	3.4683
20.93	3.4687
20.95	3.4688
20.96	3.4693
20.98	3.4697
20.99	3.4700
21.01	3.4705
21.03	3.4710
21.05	3.4716
21.06	3.4723
21.07	3.4730
21.09	3.4737
21.11	3.4745
21.13	3.4750
21.15	3.4755
21.16	3.4759
21.18	3.4769
21.19	3.4776
21.21	3.4775
21.23	3.4778
21.25	3.4781
21.27	3.4784
21.28	3.4786
21.30	3.4789
21.31	3.4792
21.33	3.4798
21.34	3.4800
21.36	3.4807
21.38	3.4811
21.39	3.4814
21.41	3.4821
21.43	3.4828
21.44	3.4834
21.46	3.4841
21.48	3.4845
21.49	3.4849
21.51	3.4853
21.52	3.4856
21.54	3.4859
21.56	3.4862
21.58	3.4863
21.59	3.4866
21.61	3.4868
21.63	3.4869
21.65	3.4873
21.67	3.4874
21.68	3.4876
21.70	3.4879
21.71	3.4883
21.73	3.4886
21.74	3.4890
21.76	3.4895
21.78	3.4899
21.79	3.4904
21.81	3.4911
21.82	3.4916
21.84	3.4922
21.86	3.4927
21.88	3.4931
21.90	3.4935
21.91	3.4940
21.93	3.4941
21.95	3.4947
21.96	3.4953
21.98	3.4955
22.00	3.4958
22.01	3.4964
22.03	3.4967
22.04	3.4969
22.06	3.4974
22.07	3.4976
22.09	3.4981
22.10	3.4986
22.12	3.4991
22.14	3.4996
22.16	3.5005
22.18	3.5012
22.19	3.5016
22.21	3.5023
22.23	3.5028
22.25	3.5033
22.26	3.5039
22.28	3.5043
22.30	3.5048
22.31	3.5053
22.32	3.5056
22.34	3.5059
22.36	3.5064
22.38	3.5066
22.39	3.5068
22.41	3.5074
22.42	3.5076
22.44	3.5080
22.46	3.5082
22.47	3.5087
22.49	3.5091
22.51	3.5095
22.53	3.5103
22.55	3.5111
22.56	3.5115
22.57	3.5122
22.59	3.5129
22.61	3.5133
22.62	3.5138
22.64	3.5145
22.66	3.5145
22.67	3.5149
22.69	3.5154
22.71	3.5157
22.73	3.5162
22.74	3.5166
22.76	3.5169
22.77	3.5176
22.79	3.5180
22.81	3.5183
22.82	3.5190
22.84	3.5195
22.86	3.5199
22.88	3.5206
22.89	3.5211
22.91	3.5217
22.93	3.5224
22.94	3.5230
22.95	3.5235
22.98	3.5239
22.99	3.5244
23.01	3.5247
23.03	3.5251
23.04	3.5254
23.06	3.5258
23.07	3.5262
23.09	3.5263
23.10	3.5267
23.12	3.5270
23.14	3.5275
23.16	3.5279
23.18	3.5281
23.19	3.5284
23.20	3.5288
23.23	3.5291
23.24	3.5296
23.26	3.5302
23.28	3.5308
23.29	3.5315
23.31	3.5320
23.32	3.5325
23.34	3.5330
23.36	3.5334
23.38	3.5339
23.39	3.5342
23.41	3.5348
23.43	3.5351
23.44	3.5354
23.45	3.5358
23.47	3.5362
23.49	3.5366
23.50	3.5370
23.52	3.5375
23.54	3.5380
23.56	3.5381
23.57	3.5387
23.59	3.5393
23.60	3.5398
23.62	3.5408
23.64	3.5413
23.65	3.5418
23.67	3.5425
23.69	3.5431
23.70	3.5436
23.72	3.5440
23.73	3.5442
23.75	3.5447
23.77	3.5449
23.78	3.5454
23.80	3.5456
23.82	3.5459
23.84	3.5464
23.85	3.5466
23.87	3.5470
23.89	3.5473
23.90	3.5475
23.92	3.5480
23.94	3.5485
23.95	3.5492
23.97	3.5498
23.98	3.5505
24.00	3.5511
24.02	3.5517
24.04	3.5524
24.05	3.5529
24.07	3.5533
24.08	3.5540
24.09	3.5544
24.11	3.5548
24.13	3.5554
24.15	3.5556
24.17	3.5562
24.19	3.5566
24.20	3.5570
24.22	3.5574
24.24	3.5578
24.25	3.5582
24.27	3.5584
24.29	3.5586
24.30	3.5590
24.32	3.5595
24.33	3.5601
24.35	3.5609
24.37	3.5615
24.38	3.5620
24.40	3.5625
24.42	3.5631
24.43	3.5636
24.45	3.5639
24.47	3.5645
24.48	3.5648
24.50	3.5652
24.52	3.5655
24.54	3.5657
24.55	3.5657
24.57	3.5661
24.58	3.5663
24.59	3.5667
24.61	3.5669
24.63	3.5672
24.65	3.5675
24.66	3.5678
24.68	3.5682
24.70	3.5687
24.72	3.5692
24.73	3.5696
24.75	3.5701
24.77	3.5704
24.78	3.5709
24.80	3.5715
24.82	3.5717
24.83	3.5723
24.85	3.5725
24.87	3.5729
24.88	3.5733
24.90	3.5733
24.92	3.5737
24.93	3.5741
24.95	3.5744
24.97	3.5747
24.98	3.5748
25.00	3.5749
25.01	3.5750
25.03	3.5752
25.05	3.5756
25.06	3.5759
25.08	3.5764
25.09	3.5769
25.11	3.5773
25.13	3.5778
25.15	3.5783
25.17	3.5789
25.19	3.5791
25.20	3.5796
25.22	3.5800
25.23	3.5803
25.25	3.5806
25.26	3.5810
25.28	3.5813
25.30	3.5818
25.31	3.5821
25.33	3.5826
25.34	3.5828
25.37	3.5832
25.38	3.5835
25.40	3.5840
25.42	3.5845
25.44	3.5853
25.45	3.5859
25.47	3.5866
25.48	3.5872
25.50	3.5880
25.52	3.5887
25.53	3.5894
25.55	3.5899
25.57	3.5903
25.58	3.5908
25.60	3.5913
25.61	3.5917
25.63	3.5919
25.65	3.5923
25.67	3.5926
25.68	3.5931
25.70	3.5935
25.71	3.5940
25.73	3.5945
25.74	3.5950
25.76	3.5958
25.78	3.5965
25.80	3.5972
25.81	3.5978
25.83	3.5985
25.85	3.5990
25.86	3.5997
25.88	3.6000
25.90	3.6004
25.91	3.6009
25.93	3.6017
25.95	3.6015
25.96	3.6022
25.98	3.6024
26.00	3.6029
26.02	3.6033
26.03	3.6035
26.05	3.6039
26.07	3.6042
26.08	3.6046
26.09	3.6049
26.11	3.6056
26.13	3.6063
26.15	3.6072
26.16	3.6077
26.18	3.6085
26.20	3.6091
26.21	3.6097
26.23	3.6102
26.25	3.6107
26.26	3.6111
26.28	3.6115
26.29	3.6120
26.31	3.6125
26.33	3.6128
26.34	3.6131
26.36	3.6136
26.38	3.6140
26.39	3.6142
26.41	3.6147
26.43	3.6149
26.45	3.6153
26.46	3.6157
26.48	3.6162
26.49	3.6171
26.51	3.6178
26.53	3.6184
26.54	3.6190
26.56	3.6197
26.57	3.6205
26.59	3.6211
26.61	3.6217
26.63	3.6222
26.65	3.6226
26.66	3.6231
26.68	3.6235
26.70	3.6238
26.71	3.6243
26.73	3.6246
26.75	3.6249
26.76	3.6254
26.78	3.6259
26.80	3.6262
26.81	3.6267
26.82	3.6271
26.84	3.6279
26.86	3.6286
26.88	3.6291
26.90	3.6297
26.91	3.6303
26.93	3.6308
26.95	3.6312
26.96	3.6316
26.98	3.6320
26.99	3.6322
27.01	3.6325
27.03	3.6328
27.05	3.6330
27.07	3.6332
27.07	3.6335
27.09	3.6339
27.11	3.6342
27.13	3.6346
27.14	3.6350
27.16	3.6354
27.18	3.6358
27.20	3.6361
27.21	3.6365
27.23	3.6369
27.25	3.6375
27.26	3.6380
27.28	3.6384
27.30	3.6389
27.31	3.6394
27.32	3.6397
27.34	3.6398
27.36	3.6403
27.38	3.6404
27.40	3.6407
27.41	3.6411
27.43	3.6414
27.44	3.6421
27.46	3.6424
27.48	3.6428
27.50	3.6430
27.51	3.6434
27.53	3.6433
27.55	3.6437
27.56	3.6441
27.58	3.6447
27.59	3.6452
27.61	3.6457
27.63	3.6462
27.65	3.6468
27.67	3.6473
27.68	3.6477
27.70	3.6482
27.72	3.6486
27.73	3.6490
27.75	3.6495
27.76	3.6500
27.78	3.6503
27.80	3.6510
27.81	3.6516
27.83	3.6519
27.84	3.6523
27.86	3.6527
27.88	3.6532
27.90	3.6537
27.91	3.6541
27.93	3.6548
27.95	3.6554
27.96	3.6561
27.98	3.6566
28.00	3.6574
28.01	3.6581
28.03	3.6586
28.05	3.6589
28.07	3.6594
28.08	3.6598
28.09	3.6604
28.11	3.6611
28.13	3.6614
28.14	3.6620
28.16	3.6625
28.18	3.6630
28.20	3.6636
28.21	3.6640
28.23	3.6644
28.25	3.6647
28.26	3.6651
28.28	3.6656
28.30	3.6664
28.31	3.6670
28.33	3.6677
28.34	3.6683
28.36	3.6690
28.38	3.6696
28.40	3.6701
28.41	3.6707
28.43	3.6711
28.45	3.6719
28.46	3.6724
28.48	3.6731
28.49	3.6737
28.51	3.6742
28.53	3.6747
28.55	3.6754
28.56	3.6759
28.58	3.6763
28.59	3.6766
28.61	3.6771
28.63	3.6777
28.65	3.6784
28.66	3.6791
28.68	3.6798
28.70	3.6803
28.71	3.6808
28.73	3.6814
28.74	3.6818
28.76	3.6825
28.78	3.6828
28.80	3.6833
28.81	3.6839
28.83	3.6843
28.84	3.6847
28.86	3.6850
28.88	3.6854
28.89	3.6856
28.91	3.6859
28.93	3.6863
28.95	3.6867
28.96	3.6873
28.98	3.6877
29.00	3.6882
29.01	3.6891
29.03	3.6899
29.04	3.6907
29.06	3.6916
29.08	3.6921
29.09	3.6928
29.11	3.6932
29.13	3.6937
29.15	3.6941
29.16	3.6945
29.18	3.6951
29.20	3.6955
29.21	3.6959
29.23	3.6961
29.25	3.6964
29.26	3.6968
29.28	3.6974
29.29	3.6978
29.31	3.6985
29.32	3.6988
29.34	3.6993
29.36	3.6999
29.38	3.7005
29.40	3.7009
29.41	3.7016
29.42	3.7021
29.44	3.7027
29.46	3.7033
29.48	3.7038
29.49	3.7043
29.51	3.7045
29.53	3.7049
29.54	3.7053
29.56	3.7058
29.57	3.7063
29.59	3.7066
29.61	3.7070
29.63	3.7074
29.64	3.7078
29.66	3.7082
29.68	3.7085
29.70	3.7089
29.71	3.7091
29.73	3.7096
29.75	3.7103
29.76	3.7109
29.78	3.7113
29.80	3.7119
29.81	3.7125
29.82	3.7128
29.84	3.7133
29.86	3.7138
29.88	3.7142
29.90	3.7147
29.91	3.7152
29.93	3.7157
29.94	3.7160
29.96	3.7164
29.98	3.7168
29.99	3.7172
30.01	3.7176
30.03	3.7181
30.04	3.7184
30.06	3.7184
30.08	3.7191
30.09	3.7197
30.11	3.7202
30.13	3.7209
30.14	3.7216
30.16	3.7223
30.18	3.7229
30.19	3.7235
30.22	3.7240
30.23	3.7243
30.25	3.7248
30.27	3.7252
30.28	3.7256
30.30	3.7259
30.31	3.7264
30.33	3.7268
30.34	3.7273
30.36	3.7275
30.37	3.7278
30.39	3.7282
30.41	3.7286
30.43	3.7290
30.44	3.7295
30.45	3.7301
30.47	3.7308
30.49	3.7312
30.51	3.7317
30.53	3.7322
30.55	3.7329
30.56	3.7334
30.57	3.7339
30.59	3.7344
30.61	3.7347
30.63	3.7350
30.65	3.7352
30.66	3.7356
30.68	3.7360
30.69	3.7363
30.71	3.7368
30.73	3.7369
30.74	3.7373
30.76	3.7377
30.78	3.7381
30.80	3.7388
30.81	3.7393
30.82	3.7400
30.85	3.7407
30.86	3.7413
30.88	3.7416
30.89	3.7421
30.91	3.7426
30.93	3.7430
30.95	3.7436
30.96	3.7440
30.98	3.7442
31.00	3.7446
31.01	3.7452
31.03	3.7455
31.04	3.7461
31.06	3.7463
31.08	3.7467
31.09	3.7472
31.10	3.7473
31.13	3.7479
31.14	3.7486
31.16	3.7493
31.18	3.7499
31.19	3.7505
31.21	3.7511
31.23	3.7517
31.24	3.7523
31.26	3.7528
31.28	3.7533
31.30	3.7538
31.31	3.7544
31.32	3.7548
31.34	3.7554
31.36	3.7560
31.38	3.7564
31.39	3.7568
31.41	3.7570
31.43	3.7573
31.45	3.7578
31.46	3.7582
31.48	3.7587
31.50	3.7591
31.51	3.7600
31.53	3.7608
31.54	3.7615
31.56	3.7621
31.57	3.7629
31.59	3.7633
31.61	3.7640
31.62	3.7645
31.64	3.7649
31.65	3.7652
31.68	3.7656
31.69	3.7661
31.70	3.7663
31.73	3.7665
31.74	3.7669
31.76	3.7673
31.78	3.7677
31.79	3.7682
31.81	3.7685
31.82	3.7690
31.84	3.7696
31.85	3.7701
31.87	3.7704
31.89	3.7709
31.91	3.7715
31.93	3.7719
31.94	3.7725
31.96	3.7729
31.98	3.7733
32.00	3.7741
32.01	3.7745
32.02	3.7750
32.04	3.7755
32.06	3.7760
32.08	3.7762
32.09	3.7765
32.11	3.7771
32.13	3.7774
32.14	3.7780
32.16	3.7783
32.17	3.7787
32.19	3.7791
32.21	3.7796
32.23	3.7802
32.24	3.7810
32.26	3.7815
32.27	3.7821
32.29	3.7825
32.30	3.7834
32.32	3.7837
32.34	3.7842
32.36	3.7848
32.37	3.7852
32.39	3.7856
32.40	3.7860
32.42	3.7862
32.44	3.7864
32.45	3.7870
32.48	3.7872
32.49	3.7876
32.50	3.7878
32.52	3.7880
32.54	3.7884
32.55	3.7890
32.57	3.7896
32.58	3.7902
32.61	3.7905
32.62	3.7911
32.64	3.7917
32.65	3.7923
32.67	3.7929
32.69	3.7932
32.70	3.7936
32.73	3.7937
32.74	3.7941
32.75	3.7944
32.77	3.7946
32.79	3.7952
32.80	3.7955
32.83	3.7960
32.84	3.7964
32.86	3.7966
32.88	3.7970
32.89	3.7976
32.91	3.7978
32.92	3.7984
32.94	3.7990
32.95	3.7997
32.97	3.8006
32.99	3.8012
33.00	3.8018
33.02	3.8022
33.04	3.8027
33.06	3.8030
33.07	3.8035
33.09	3.8038
33.10	3.8043
33.12	3.8049
33.14	3.8052
33.16	3.8056
33.17	3.8060
33.19	3.8066
33.20	3.8069
33.22	3.8072
33.24	3.8075
33.25	3.8077
33.27	3.8085
33.28	3.8091
33.30	3.8097
33.32	3.8103
33.34	3.8110
33.36	3.8116
